# %ECSV 1.0
# ---
# datatype:
# - {name: energy, unit: keV, datatype: float64}
# - {name: FWHM, unit: eV, datatype: float64}
# meta: !!omap
# - comments: [Arcus CCD QE spectral response FWHM, Prepared by Eric Miller (MIT) 2021-02-11, Assumes the response is Gaussian with FWHM
#       vs. energy equal to the maximum, of 70 eV or the Suzaku XIS1 BI ground-based measurement from, 'Matsumoto et al. 2006, Proc. of
#       SPIE Vol. 6266 626641-7,', 'https://doi.org/10.1117/12.671033, given by:', "FWHM = sqrt(A\xD7E**2 + B\xD7E + C),", where E is
#       the energy in keV and, "A = 81.63 \xB1 5.09", "B = 2374.7 \xB1 18.9", "C = 236.2 \xB1 13.3", 'Columns are:', 'Col1:  energy in
#       keV', 'Col2:  FWHM of Gaussian spectral redistribution in eV', '']
# - __serialized_columns__:
#     FWHM:
#       __class__: astropy.units.quantity.Quantity
#       unit: !astropy.units.Unit {unit: eV}
#       value: !astropy.table.SerializedColumn {name: FWHM}
#     energy:
#       __class__: astropy.units.quantity.Quantity
#       unit: !astropy.units.Unit {unit: keV}
#       value: !astropy.table.SerializedColumn {name: energy}
# schema: astropy-2.0
energy FWHM
0.1 70.0
0.105 70.0
0.11 70.0
0.115 70.0
0.12 70.0
0.125 70.0
0.13 70.0
0.135 70.0
0.14 70.0
0.145 70.0
0.15 70.0
0.155 70.0
0.16 70.0
0.165 70.0
0.17 70.0
0.175 70.0
0.18 70.0
0.185 70.0
0.19 70.0
0.195 70.0
0.2 70.0
0.205 70.0
0.21 70.0
0.215 70.0
0.22 70.0
0.225 70.0
0.23 70.0
0.235 70.0
0.24 70.0
0.245 70.0
0.25 70.0
0.255 70.0
0.26 70.0
0.265 70.0
0.27 70.0
0.275 70.0
0.28 70.0
0.2801 70.0
0.2802 70.0
0.2803 70.0
0.2804 70.0
0.2805 70.0
0.2806 70.0
0.2807 70.0
0.2808 70.0
0.2809 70.0
0.281 70.0
0.2811 70.0
0.2812 70.0
0.2813 70.0
0.2814 70.0
0.2815 70.0
0.2816 70.0
0.2817 70.0
0.2818 70.0
0.2819 70.0
0.282 70.0
0.2821 70.0
0.2822 70.0
0.2823 70.0
0.2824 70.0
0.2825 70.0
0.2826 70.0
0.2827 70.0
0.2828 70.0
0.2829 70.0
0.283 70.0
0.2831 70.0
0.2832 70.0
0.2833 70.0
0.2834 70.0
0.2835 70.0
0.2836 70.0
0.2837 70.0
0.2838 70.0
0.2839 70.0
0.284 70.0
0.2841 70.0
0.2842 70.0
0.2843 70.0
0.2844 70.0
0.2845 70.0
0.2846 70.0
0.2847 70.0
0.2848 70.0
0.2849 70.0
0.285 70.0
0.2851 70.0
0.2852 70.0
0.2853 70.0
0.2854 70.0
0.2855 70.0
0.2856 70.0
0.2857 70.0
0.2858 70.0
0.2859 70.0
0.286 70.0
0.2861 70.0
0.2862 70.0
0.2863 70.0
0.2864 70.0
0.2865 70.0
0.2866 70.0
0.2867 70.0
0.2868 70.0
0.2869 70.0
0.287 70.0
0.2871 70.0
0.2872 70.0
0.2873 70.0
0.2874 70.0
0.2875 70.0
0.2876 70.0
0.2877 70.0
0.2878 70.0
0.2879 70.0
0.288 70.0
0.2881 70.0
0.2882 70.0
0.2883 70.0
0.2884 70.0
0.2885 70.0
0.2886 70.0
0.2887 70.0
0.2888 70.0
0.2889 70.0
0.289 70.0
0.2891 70.0
0.2892 70.0
0.2893 70.0
0.2894 70.0
0.2895 70.0
0.2896 70.0
0.2897 70.0
0.2898 70.0
0.2899 70.0
0.29 70.0
0.2901 70.0
0.2902 70.0
0.2903 70.0
0.2904 70.0
0.2905 70.0
0.2906 70.0
0.2907 70.0
0.2908 70.0
0.2909 70.0
0.291 70.0
0.2911 70.0
0.2912 70.0
0.2913 70.0
0.2914 70.0
0.2915 70.0
0.2916 70.0
0.2917 70.0
0.2918 70.0
0.2919 70.0
0.292 70.0
0.2921 70.0
0.2922 70.0
0.2923 70.0
0.2924 70.0
0.2925 70.0
0.2926 70.0
0.2927 70.0
0.2928 70.0
0.2929 70.0
0.293 70.0
0.2931 70.0
0.2932 70.0
0.2933 70.0
0.2934 70.0
0.2935 70.0
0.2936 70.0
0.2937 70.0
0.2938 70.0
0.2939 70.0
0.294 70.0
0.2941 70.0
0.2942 70.0
0.2943 70.0
0.2944 70.0
0.2945 70.0
0.2946 70.0
0.2947 70.0
0.2948 70.0
0.2949 70.0
0.295 70.0
0.2951 70.0
0.2952 70.0
0.2953 70.0
0.2954 70.0
0.2955 70.0
0.2956 70.0
0.2957 70.0
0.2958 70.0
0.2959 70.0
0.296 70.0
0.2961 70.0
0.2962 70.0
0.2963 70.0
0.2964 70.0
0.2965 70.0
0.2966 70.0
0.2967 70.0
0.2968 70.0
0.2969 70.0
0.297 70.0
0.2971 70.0
0.2972 70.0
0.2973 70.0
0.2974 70.0
0.2975 70.0
0.2976 70.0
0.2977 70.0
0.2978 70.0
0.2979 70.0
0.298 70.0
0.2981 70.0
0.2982 70.0
0.2983 70.0
0.2984 70.0
0.2985 70.0
0.2986 70.0
0.2987 70.0
0.2988 70.0
0.2989 70.0
0.299 70.0
0.2991 70.0
0.2992 70.0
0.2993 70.0
0.2994 70.0
0.2995 70.0
0.2996 70.0
0.2997 70.0
0.2998 70.0
0.2999 70.0
0.3 70.0
0.3001 70.0
0.3002 70.0
0.3003 70.0
0.3004 70.0
0.3005 70.0
0.3006 70.0
0.3007 70.0
0.3008 70.0
0.3009 70.0
0.301 70.0
0.3011 70.0
0.3012 70.0
0.3013 70.0
0.3014 70.0
0.3015 70.0
0.3016 70.0
0.3017 70.0
0.3018 70.0
0.3019 70.0
0.302 70.0
0.3021 70.0
0.3022 70.0
0.3023 70.0
0.3024 70.0
0.3025 70.0
0.3026 70.0
0.3027 70.0
0.3028 70.0
0.3029 70.0
0.303 70.0
0.3031 70.0
0.3032 70.0
0.3033 70.0
0.3034 70.0
0.3035 70.0
0.3036 70.0
0.3037 70.0
0.3038 70.0
0.3039 70.0
0.304 70.0
0.3041 70.0
0.3042 70.0
0.3043 70.0
0.3044 70.0
0.3045 70.0
0.3046 70.0
0.3047 70.0
0.3048 70.0
0.3049 70.0
0.305 70.0
0.3051 70.0
0.3052 70.0
0.3053 70.0
0.3054 70.0
0.3055 70.0
0.3056 70.0
0.3057 70.0
0.3058 70.0
0.3059 70.0
0.306 70.0
0.3061 70.0
0.3062 70.0
0.3063 70.0
0.3064 70.0
0.3065 70.0
0.3066 70.0
0.3067 70.0
0.3068 70.0
0.3069 70.0
0.307 70.0
0.3071 70.0
0.3072 70.0
0.3073 70.0
0.3074 70.0
0.3075 70.0
0.3076 70.0
0.3077 70.0
0.3078 70.0
0.3079 70.0
0.308 70.0
0.3081 70.0
0.3082 70.0
0.3083 70.0
0.3084 70.0
0.3085 70.0
0.3086 70.0
0.3087 70.0
0.3088 70.0
0.3089 70.0
0.309 70.0
0.3091 70.0
0.3092 70.0
0.3093 70.0
0.3094 70.0
0.3095 70.0
0.3096 70.0
0.3097 70.0
0.3098 70.0
0.3099 70.0
0.31 70.0
0.3101 70.0
0.3102 70.0
0.3103 70.0
0.3104 70.0
0.3105 70.0
0.3106 70.0
0.3107 70.0
0.3108 70.0
0.3109 70.0
0.311 70.0
0.3111 70.0
0.3112 70.0
0.3113 70.0
0.3114 70.0
0.3115 70.0
0.3116 70.0
0.3117 70.0
0.3118 70.0
0.3119 70.0
0.312 70.0
0.3121 70.0
0.3122 70.0
0.3123 70.0
0.3124 70.0
0.3125 70.0
0.3126 70.0
0.3127 70.0
0.3128 70.0
0.3129 70.0
0.313 70.0
0.3131 70.0
0.3132 70.0
0.3133 70.0
0.3134 70.0
0.3135 70.0
0.3136 70.0
0.3137 70.0
0.3138 70.0
0.3139 70.0
0.314 70.0
0.3141 70.0
0.3142 70.0
0.3143 70.0
0.3144 70.0
0.3145 70.0
0.3146 70.0
0.3147 70.0
0.3148 70.0
0.3149 70.0
0.315 70.0
0.3151 70.0
0.3152 70.0
0.3153 70.0
0.3154 70.0
0.3155 70.0
0.3156 70.0
0.3157 70.0
0.3158 70.0
0.3159 70.0
0.316 70.0
0.3161 70.0
0.3162 70.0
0.3163 70.0
0.3164 70.0
0.3165 70.0
0.3166 70.0
0.3167 70.0
0.3168 70.0
0.3169 70.0
0.317 70.0
0.3171 70.0
0.3172 70.0
0.3173 70.0
0.3174 70.0
0.3175 70.0
0.3176 70.0
0.3177 70.0
0.3178 70.0
0.3179 70.0
0.318 70.0
0.3181 70.0
0.3182 70.0
0.3183 70.0
0.3184 70.0
0.3185 70.0
0.3186 70.0
0.3187 70.0
0.3188 70.0
0.3189 70.0
0.319 70.0
0.3191 70.0
0.3192 70.0
0.3193 70.0
0.3194 70.0
0.3195 70.0
0.3196 70.0
0.3197 70.0
0.3198 70.0
0.3199 70.0
0.32 70.0
0.3201 70.0
0.3202 70.0
0.3203 70.0
0.3204 70.0
0.3205 70.0
0.3206 70.0
0.3207 70.0
0.3208 70.0
0.3209 70.0
0.321 70.0
0.3211 70.0
0.3212 70.0
0.3213 70.0
0.3214 70.0
0.3215 70.0
0.3216 70.0
0.3217 70.0
0.3218 70.0
0.3219 70.0
0.322 70.0
0.3221 70.0
0.3222 70.0
0.3223 70.0
0.3224 70.0
0.3225 70.0
0.3226 70.0
0.3227 70.0
0.3228 70.0
0.3229 70.0
0.323 70.0
0.3231 70.0
0.3232 70.0
0.3233 70.0
0.3234 70.0
0.3235 70.0
0.3236 70.0
0.3237 70.0
0.3238 70.0
0.3239 70.0
0.324 70.0
0.3241 70.0
0.3242 70.0
0.3243 70.0
0.3244 70.0
0.3245 70.0
0.3246 70.0
0.3247 70.0
0.3248 70.0
0.3249 70.0
0.325 70.0
0.3251 70.0
0.3252 70.0
0.3253 70.0
0.3254 70.0
0.3255 70.0
0.3256 70.0
0.3257 70.0
0.3258 70.0
0.3259 70.0
0.326 70.0
0.3261 70.0
0.3262 70.0
0.3263 70.0
0.3264 70.0
0.3265 70.0
0.3266 70.0
0.3267 70.0
0.3268 70.0
0.3269 70.0
0.327 70.0
0.3271 70.0
0.3272 70.0
0.3273 70.0
0.3274 70.0
0.3275 70.0
0.3276 70.0
0.3277 70.0
0.3278 70.0
0.3279 70.0
0.328 70.0
0.3281 70.0
0.3282 70.0
0.3283 70.0
0.3284 70.0
0.3285 70.0
0.3286 70.0
0.3287 70.0
0.3288 70.0
0.3289 70.0
0.329 70.0
0.3291 70.0
0.3292 70.0
0.3293 70.0
0.3294 70.0
0.3295 70.0
0.3296 70.0
0.3297 70.0
0.3298 70.0
0.3299 70.0
0.33 70.0
0.3301 70.0
0.3302 70.0
0.3303 70.0
0.3304 70.0
0.3305 70.0
0.3306 70.0
0.3307 70.0
0.3308 70.0
0.3309 70.0
0.331 70.0
0.3311 70.0
0.3312 70.0
0.3313 70.0
0.3314 70.0
0.3315 70.0
0.3316 70.0
0.3317 70.0
0.3318 70.0
0.3319 70.0
0.332 70.0
0.3321 70.0
0.3322 70.0
0.3323 70.0
0.3324 70.0
0.3325 70.0
0.3326 70.0
0.3327 70.0
0.3328 70.0
0.3329 70.0
0.333 70.0
0.3331 70.0
0.3332 70.0
0.3333 70.0
0.3334 70.0
0.3335 70.0
0.3336 70.0
0.3337 70.0
0.3338 70.0
0.3339 70.0
0.334 70.0
0.3341 70.0
0.3342 70.0
0.3343 70.0
0.3344 70.0
0.3345 70.0
0.3346 70.0
0.3347 70.0
0.3348 70.0
0.3349 70.0
0.335 70.0
0.3351 70.0
0.3352 70.0
0.3353 70.0
0.3354 70.0
0.3355 70.0
0.3356 70.0
0.3357 70.0
0.3358 70.0
0.3359 70.0
0.336 70.0
0.3361 70.0
0.3362 70.0
0.3363 70.0
0.3364 70.0
0.3365 70.0
0.3366 70.0
0.3367 70.0
0.3368 70.0
0.3369 70.0
0.337 70.0
0.3371 70.0
0.3372 70.0
0.3373 70.0
0.3374 70.0
0.3375 70.0
0.3376 70.0
0.3377 70.0
0.3378 70.0
0.3379 70.0
0.338 70.0
0.3381 70.0
0.3382 70.0
0.3383 70.0
0.3384 70.0
0.3385 70.0
0.3386 70.0
0.3387 70.0
0.3388 70.0
0.3389 70.0
0.339 70.0
0.3391 70.0
0.3392 70.0
0.3393 70.0
0.3394 70.0
0.3395 70.0
0.3396 70.0
0.3397 70.0
0.3398 70.0
0.3399 70.0
0.34 70.0
0.3401 70.0
0.3402 70.0
0.3403 70.0
0.3404 70.0
0.3405 70.0
0.3406 70.0
0.3407 70.0
0.3408 70.0
0.3409 70.0
0.341 70.0
0.3411 70.0
0.3412 70.0
0.3413 70.0
0.3414 70.0
0.3415 70.0
0.3416 70.0
0.3417 70.0
0.3418 70.0
0.3419 70.0
0.342 70.0
0.3421 70.0
0.3422 70.0
0.3423 70.0
0.3424 70.0
0.3425 70.0
0.3426 70.0
0.3427 70.0
0.3428 70.0
0.3429 70.0
0.343 70.0
0.3431 70.0
0.3432 70.0
0.3433 70.0
0.3434 70.0
0.3435 70.0
0.3436 70.0
0.3437 70.0
0.3438 70.0
0.3439 70.0
0.344 70.0
0.3441 70.0
0.3442 70.0
0.3443 70.0
0.3444 70.0
0.3445 70.0
0.3446 70.0
0.3447 70.0
0.3448 70.0
0.3449 70.0
0.345 70.0
0.3451 70.0
0.3452 70.0
0.3453 70.0
0.3454 70.0
0.3455 70.0
0.3456 70.0
0.3457 70.0
0.3458 70.0
0.3459 70.0
0.346 70.0
0.3461 70.0
0.3462 70.0
0.3463 70.0
0.3464 70.0
0.3465 70.0
0.3466 70.0
0.3467 70.0
0.3468 70.0
0.3469 70.0
0.347 70.0
0.3471 70.0
0.3472 70.0
0.3473 70.0
0.3474 70.0
0.3475 70.0
0.3476 70.0
0.3477 70.0
0.3478 70.0
0.3479 70.0
0.348 70.0
0.3481 70.0
0.3482 70.0
0.3483 70.0
0.3484 70.0
0.3485 70.0
0.3486 70.0
0.3487 70.0
0.3488 70.0
0.3489 70.0
0.349 70.0
0.3491 70.0
0.3492 70.0
0.3493 70.0
0.3494 70.0
0.3495 70.0
0.3496 70.0
0.3497 70.0
0.3498 70.0
0.3499 70.0
0.35 70.0
0.3501 70.0
0.3502 70.0
0.3503 70.0
0.3504 70.0
0.3505 70.0
0.3506 70.0
0.3507 70.0
0.3508 70.0
0.3509 70.0
0.351 70.0
0.3511 70.0
0.3512 70.0
0.3513 70.0
0.3514 70.0
0.3515 70.0
0.3516 70.0
0.3517 70.0
0.3518 70.0
0.3519 70.0
0.352 70.0
0.3521 70.0
0.3522 70.0
0.3523 70.0
0.3524 70.0
0.3525 70.0
0.3526 70.0
0.3527 70.0
0.3528 70.0
0.3529 70.0
0.353 70.0
0.3531 70.0
0.3532 70.0
0.3533 70.0
0.3534 70.0
0.3535 70.0
0.3536 70.0
0.3537 70.0
0.3538 70.0
0.3539 70.0
0.354 70.0
0.3541 70.0
0.3542 70.0
0.3543 70.0
0.3544 70.0
0.3545 70.0
0.3546 70.0
0.3547 70.0
0.3548 70.0
0.3549 70.0
0.355 70.0
0.3551 70.0
0.3552 70.0
0.3553 70.0
0.3554 70.0
0.3555 70.0
0.3556 70.0
0.3557 70.0
0.3558 70.0
0.3559 70.0
0.356 70.0
0.3561 70.0
0.3562 70.0
0.3563 70.0
0.3564 70.0
0.3565 70.0
0.3566 70.0
0.3567 70.0
0.3568 70.0
0.3569 70.0
0.357 70.0
0.3571 70.0
0.3572 70.0
0.3573 70.0
0.3574 70.0
0.3575 70.0
0.3576 70.0
0.3577 70.0
0.3578 70.0
0.3579 70.0
0.358 70.0
0.3581 70.0
0.3582 70.0
0.3583 70.0
0.3584 70.0
0.3585 70.0
0.3586 70.0
0.3587 70.0
0.3588 70.0
0.3589 70.0
0.359 70.0
0.3591 70.0
0.3592 70.0
0.3593 70.0
0.3594 70.0
0.3595 70.0
0.3596 70.0
0.3597 70.0
0.3598 70.0
0.3599 70.0
0.36 70.0
0.365 70.0
0.37 70.0
0.375 70.0
0.38 70.0
0.385 70.0
0.39 70.0
0.3901 70.0
0.3902 70.0
0.3903 70.0
0.3904 70.0
0.3905 70.0
0.3906 70.0
0.3907 70.0
0.3908 70.0
0.3909 70.0
0.391 70.0
0.3911 70.0
0.3912 70.0
0.3913 70.0
0.3914 70.0
0.3915 70.0
0.3916 70.0
0.3917 70.0
0.3918 70.0
0.3919 70.0
0.392 70.0
0.3921 70.0
0.3922 70.0
0.3923 70.0
0.3924 70.0
0.3925 70.0
0.3926 70.0
0.3927 70.0
0.3928 70.0
0.3929 70.0
0.393 70.0
0.3931 70.0
0.3932 70.0
0.3933 70.0
0.3934 70.0
0.3935 70.0
0.3936 70.0
0.3937 70.0
0.3938 70.0
0.3939 70.0
0.394 70.0
0.3941 70.0
0.3942 70.0
0.3943 70.0
0.3944 70.0
0.3945 70.0
0.3946 70.0
0.3947 70.0
0.3948 70.0
0.3949 70.0
0.395 70.0
0.3951 70.0
0.3952 70.0
0.3953 70.0
0.3954 70.0
0.3955 70.0
0.3956 70.0
0.3957 70.0
0.3958 70.0
0.3959 70.0
0.396 70.0
0.3961 70.0
0.3962 70.0
0.3963 70.0
0.3964 70.0
0.3965 70.0
0.3966 70.0
0.3967 70.0
0.3968 70.0
0.3969 70.0
0.397 70.0
0.3971 70.0
0.3972 70.0
0.3973 70.0
0.3974 70.0
0.3975 70.0
0.3976 70.0
0.3977 70.0
0.3978 70.0
0.3979 70.0
0.398 70.0
0.3981 70.0
0.3982 70.0
0.3983 70.0
0.3984 70.0
0.3985 70.0
0.3986 70.0
0.3987 70.0
0.3988 70.0
0.3989 70.0
0.399 70.0
0.3991 70.0
0.3992 70.0
0.3993 70.0
0.3994 70.0
0.3995 70.0
0.3996 70.0
0.3997 70.0
0.3998 70.0
0.3999 70.0
0.4 70.0
0.4001 70.0
0.4002 70.0
0.4003 70.0
0.4004 70.0
0.4005 70.0
0.4006 70.0
0.4007 70.0
0.4008 70.0
0.4009 70.0
0.401 70.0
0.4011 70.0
0.4012 70.0
0.4013 70.0
0.4014 70.0
0.4015 70.0
0.4016 70.0
0.4017 70.0
0.4018 70.0
0.4019 70.0
0.402 70.0
0.4021 70.0
0.4022 70.0
0.4023 70.0
0.4024 70.0
0.4025 70.0
0.4026 70.0
0.4027 70.0
0.4028 70.0
0.4029 70.0
0.403 70.0
0.4031 70.0
0.4032 70.0
0.4033 70.0
0.4034 70.0
0.4035 70.0
0.4036 70.0
0.4037 70.0
0.4038 70.0
0.4039 70.0
0.404 70.0
0.4041 70.0
0.4042 70.0
0.4043 70.0
0.4044 70.0
0.4045 70.0
0.4046 70.0
0.4047 70.0
0.4048 70.0
0.4049 70.0
0.405 70.0
0.4051 70.0
0.4052 70.0
0.4053 70.0
0.4054 70.0
0.4055 70.0
0.4056 70.0
0.4057 70.0
0.4058 70.0
0.4059 70.0
0.406 70.0
0.4061 70.0
0.4062 70.0
0.4063 70.0
0.4064 70.0
0.4065 70.0
0.4066 70.0
0.4067 70.0
0.4068 70.0
0.4069 70.0
0.407 70.0
0.4071 70.0
0.4072 70.0
0.4073 70.0
0.4074 70.0
0.4075 70.0
0.4076 70.0
0.4077 70.0
0.4078 70.0
0.4079 70.0
0.408 70.0
0.4081 70.0
0.4082 70.0
0.4083 70.0
0.4084 70.0
0.4085 70.0
0.4086 70.0
0.4087 70.0
0.4088 70.0
0.4089 70.0
0.409 70.0
0.4091 70.0
0.4092 70.0
0.4093 70.0
0.4094 70.0
0.4095 70.0
0.4096 70.0
0.4097 70.0
0.4098 70.0
0.4099 70.0
0.41 70.0
0.4101 70.0
0.4102 70.0
0.4103 70.0
0.4104 70.0
0.4105 70.0
0.4106 70.0
0.4107 70.0
0.4108 70.0
0.4109 70.0
0.411 70.0
0.4111 70.0
0.4112 70.0
0.4113 70.0
0.4114 70.0
0.4115 70.0
0.4116 70.0
0.4117 70.0
0.4118 70.0
0.4119 70.0
0.412 70.0
0.4121 70.0
0.4122 70.0
0.4123 70.0
0.4124 70.0
0.4125 70.0
0.4126 70.0
0.4127 70.0
0.4128 70.0
0.4129 70.0
0.413 70.0
0.4131 70.0
0.4132 70.0
0.4133 70.0
0.4134 70.0
0.4135 70.0
0.4136 70.0
0.4137 70.0
0.4138 70.0
0.4139 70.0
0.414 70.0
0.4141 70.0
0.4142 70.0
0.4143 70.0
0.4144 70.0
0.4145 70.0
0.4146 70.0
0.4147 70.0
0.4148 70.0
0.4149 70.0
0.415 70.0
0.4151 70.0
0.4152 70.0
0.4153 70.0
0.4154 70.0
0.4155 70.0
0.4156 70.0
0.4157 70.0
0.4158 70.0
0.4159 70.0
0.416 70.0
0.4161 70.0
0.4162 70.0
0.4163 70.0
0.4164 70.0
0.4165 70.0
0.4166 70.0
0.4167 70.0
0.4168 70.0
0.4169 70.0
0.417 70.0
0.4171 70.0
0.4172 70.0
0.4173 70.0
0.4174 70.0
0.4175 70.0
0.4176 70.0
0.4177 70.0
0.4178 70.0
0.4179 70.0
0.418 70.0
0.4181 70.0
0.4182 70.0
0.4183 70.0
0.4184 70.0
0.4185 70.0
0.4186 70.0
0.4187 70.0
0.4188 70.0
0.4189 70.0
0.419 70.0
0.4191 70.0
0.4192 70.0
0.4193 70.0
0.4194 70.0
0.4195 70.0
0.4196 70.0
0.4197 70.0
0.4198 70.0
0.4199 70.0
0.42 70.0
0.4201 70.0
0.4202 70.0
0.4203 70.0
0.4204 70.0
0.4205 70.0
0.4206 70.0
0.4207 70.0
0.4208 70.0
0.4209 70.0
0.421 70.0
0.4211 70.0
0.4212 70.0
0.4213 70.0
0.4214 70.0
0.4215 70.0
0.4216 70.0
0.4217 70.0
0.4218 70.0
0.4219 70.0
0.422 70.0
0.4221 70.0
0.4222 70.0
0.4223 70.0
0.4224 70.0
0.4225 70.0
0.4226 70.0
0.4227 70.0
0.4228 70.0
0.4229 70.0
0.423 70.0
0.4231 70.0
0.4232 70.0
0.4233 70.0
0.4234 70.0
0.4235 70.0
0.4236 70.0
0.4237 70.0
0.4238 70.0
0.4239 70.0
0.424 70.0
0.4241 70.0
0.4242 70.0
0.4243 70.0
0.4244 70.0
0.4245 70.0
0.4246 70.0
0.4247 70.0
0.4248 70.0
0.4249 70.0
0.425 70.0
0.4251 70.0
0.4252 70.0
0.4253 70.0
0.4254 70.0
0.4255 70.0
0.4256 70.0
0.4257 70.0
0.4258 70.0
0.4259 70.0
0.426 70.0
0.4261 70.0
0.4262 70.0
0.4263 70.0
0.4264 70.0
0.4265 70.0
0.4266 70.0
0.4267 70.0
0.4268 70.0
0.4269 70.0
0.427 70.0
0.4271 70.0
0.4272 70.0
0.4273 70.0
0.4274 70.0
0.4275 70.0
0.4276 70.0
0.4277 70.0
0.4278 70.0
0.4279 70.0
0.428 70.0
0.4281 70.0
0.4282 70.0
0.4283 70.0
0.4284 70.0
0.4285 70.0
0.4286 70.0
0.4287 70.0
0.4288 70.0
0.4289 70.0
0.429 70.0
0.4291 70.0
0.4292 70.0
0.4293 70.0
0.4294 70.0
0.4295 70.0
0.4296 70.0
0.4297 70.0
0.4298 70.0
0.4299 70.0
0.43 70.0
0.4301 70.0
0.4302 70.0
0.4303 70.0
0.4304 70.0
0.4305 70.0
0.4306 70.0
0.4307 70.0
0.4308 70.0
0.4309 70.0
0.431 70.0
0.4311 70.0
0.4312 70.0
0.4313 70.0
0.4314 70.0
0.4315 70.0
0.4316 70.0
0.4317 70.0
0.4318 70.0
0.4319 70.0
0.432 70.0
0.4321 70.0
0.4322 70.0
0.4323 70.0
0.4324 70.0
0.4325 70.0
0.4326 70.0
0.4327 70.0
0.4328 70.0
0.4329 70.0
0.433 70.0
0.4331 70.0
0.4332 70.0
0.4333 70.0
0.4334 70.0
0.4335 70.0
0.4336 70.0
0.4337 70.0
0.4338 70.0
0.4339 70.0
0.434 70.0
0.4341 70.0
0.4342 70.0
0.4343 70.0
0.4344 70.0
0.4345 70.0
0.4346 70.0
0.4347 70.0
0.4348 70.0
0.4349 70.0
0.435 70.0
0.4351 70.0
0.4352 70.0
0.4353 70.0
0.4354 70.0
0.4355 70.0
0.4356 70.0
0.4357 70.0
0.4358 70.0
0.4359 70.0
0.436 70.0
0.4361 70.0
0.4362 70.0
0.4363 70.0
0.4364 70.0
0.4365 70.0
0.4366 70.0
0.4367 70.0
0.4368 70.0
0.4369 70.0
0.437 70.0
0.4371 70.0
0.4372 70.0
0.4373 70.0
0.4374 70.0
0.4375 70.0
0.4376 70.0
0.4377 70.0
0.4378 70.0
0.4379 70.0
0.438 70.0
0.4381 70.0
0.4382 70.0
0.4383 70.0
0.4384 70.0
0.4385 70.0
0.4386 70.0
0.4387 70.0
0.4388 70.0
0.4389 70.0
0.439 70.0
0.4391 70.0
0.4392 70.0
0.4393 70.0
0.4394 70.0
0.4395 70.0
0.4396 70.0
0.4397 70.0
0.4398 70.0
0.4399 70.0
0.44 70.0
0.4401 70.0
0.4402 70.0
0.4403 70.0
0.4404 70.0
0.4405 70.0
0.4406 70.0
0.4407 70.0
0.4408 70.0
0.4409 70.0
0.441 70.0
0.4411 70.0
0.4412 70.0
0.4413 70.0
0.4414 70.0
0.4415 70.0
0.4416 70.0
0.4417 70.0
0.4418 70.0
0.4419 70.0
0.442 70.0
0.4421 70.0
0.4422 70.0
0.4423 70.0
0.4424 70.0
0.4425 70.0
0.4426 70.0
0.4427 70.0
0.4428 70.0
0.4429 70.0
0.443 70.0
0.4431 70.0
0.4432 70.0
0.4433 70.0
0.4434 70.0
0.4435 70.0
0.4436 70.0
0.4437 70.0
0.4438 70.0
0.4439 70.0
0.444 70.0
0.4441 70.0
0.4442 70.0
0.4443 70.0
0.4444 70.0
0.4445 70.0
0.4446 70.0
0.4447 70.0
0.4448 70.0
0.4449 70.0
0.445 70.0
0.4451 70.0
0.4452 70.0
0.4453 70.0
0.4454 70.0
0.4455 70.0
0.4456 70.0
0.4457 70.0
0.4458 70.0
0.4459 70.0
0.446 70.0
0.4461 70.0
0.4462 70.0
0.4463 70.0
0.4464 70.0
0.4465 70.0
0.4466 70.0
0.4467 70.0
0.4468 70.0
0.4469 70.0
0.447 70.0
0.4471 70.0
0.4472 70.0
0.4473 70.0
0.4474 70.0
0.4475 70.0
0.4476 70.0
0.4477 70.0
0.4478 70.0
0.4479 70.0
0.448 70.0
0.4481 70.0
0.4482 70.0
0.4483 70.0
0.4484 70.0
0.4485 70.0
0.4486 70.0
0.4487 70.0
0.4488 70.0
0.4489 70.0
0.449 70.0
0.4491 70.0
0.4492 70.0
0.4493 70.0
0.4494 70.0
0.4495 70.0
0.4496 70.0
0.4497 70.0
0.4498 70.0
0.4499 70.0
0.45 70.0
0.4501 70.0
0.4502 70.0
0.4503 70.0
0.4504 70.0
0.4505 70.0
0.4506 70.0
0.4507 70.0
0.4508 70.0
0.4509 70.0
0.451 70.0
0.4511 70.0
0.4512 70.0
0.4513 70.0
0.4514 70.0
0.4515 70.0
0.4516 70.0
0.4517 70.0
0.4518 70.0
0.4519 70.0
0.452 70.0
0.4521 70.0
0.4522 70.0
0.4523 70.0
0.4524 70.0
0.4525 70.0
0.4526 70.0
0.4527 70.0
0.4528 70.0
0.4529 70.0
0.453 70.0
0.4531 70.0
0.4532 70.0
0.4533 70.0
0.4534 70.0
0.4535 70.0
0.4536 70.0
0.4537 70.0
0.4538 70.0
0.4539 70.0
0.454 70.0
0.4541 70.0
0.4542 70.0
0.4543 70.0
0.4544 70.0
0.4545 70.0
0.4546 70.0
0.4547 70.0
0.4548 70.0
0.4549 70.0
0.455 70.0
0.4551 70.0
0.4552 70.0
0.4553 70.0
0.4554 70.0
0.4555 70.0
0.4556 70.0
0.4557 70.0
0.4558 70.0
0.4559 70.0
0.456 70.0
0.4561 70.0
0.4562 70.0
0.4563 70.0
0.4564 70.0
0.4565 70.0
0.4566 70.0
0.4567 70.0
0.4568 70.0
0.4569 70.0
0.457 70.0
0.4571 70.0
0.4572 70.0
0.4573 70.0
0.4574 70.0
0.4575 70.0
0.4576 70.0
0.4577 70.0
0.4578 70.0
0.4579 70.0
0.458 70.0
0.4581 70.0
0.4582 70.0
0.4583 70.0
0.4584 70.0
0.4585 70.0
0.4586 70.0
0.4587 70.0
0.4588 70.0
0.4589 70.0
0.459 70.0
0.4591 70.0
0.4592 70.0
0.4593 70.0
0.4594 70.0
0.4595 70.0
0.4596 70.0
0.4597 70.0
0.4598 70.0
0.4599 70.0
0.46 70.0
0.4601 70.0
0.4602 70.0
0.4603 70.0
0.4604 70.0
0.4605 70.0
0.4606 70.0
0.4607 70.0
0.4608 70.0
0.4609 70.0
0.461 70.0
0.4611 70.0
0.4612 70.0
0.4613 70.0
0.4614 70.0
0.4615 70.0
0.4616 70.0
0.4617 70.0
0.4618 70.0
0.4619 70.0
0.462 70.0
0.4621 70.0
0.4622 70.0
0.4623 70.0
0.4624 70.0
0.4625 70.0
0.4626 70.0
0.4627 70.0
0.4628 70.0
0.4629 70.0
0.463 70.0
0.4631 70.0
0.4632 70.0
0.4633 70.0
0.4634 70.0
0.4635 70.0
0.4636 70.0
0.4637 70.0
0.4638 70.0
0.4639 70.0
0.464 70.0
0.4641 70.0
0.4642 70.0
0.4643 70.0
0.4644 70.0
0.4645 70.0
0.4646 70.0
0.4647 70.0
0.4648 70.0
0.4649 70.0
0.465 70.0
0.4651 70.0
0.4652 70.0
0.4653 70.0
0.4654 70.0
0.4655 70.0
0.4656 70.0
0.4657 70.0
0.4658 70.0
0.4659 70.0
0.466 70.0
0.4661 70.0
0.4662 70.0
0.4663 70.0
0.4664 70.0
0.4665 70.0
0.4666 70.0
0.4667 70.0
0.4668 70.0
0.4669 70.0
0.467 70.0
0.4671 70.0
0.4672 70.0
0.4673 70.0
0.4674 70.0
0.4675 70.0
0.4676 70.0
0.4677 70.0
0.4678 70.0
0.4679 70.0
0.468 70.0
0.4681 70.0
0.4682 70.0
0.4683 70.0
0.4684 70.0
0.4685 70.0
0.4686 70.0
0.4687 70.0
0.4688 70.0
0.4689 70.0
0.469 70.0
0.4691 70.0
0.4692 70.0
0.4693 70.0
0.4694 70.0
0.4695 70.0
0.4696 70.0
0.4697 70.0
0.4698 70.0
0.4699 70.0
0.47 70.0
0.4701 70.0
0.4702 70.0
0.4703 70.0
0.4704 70.0
0.4705 70.0
0.4706 70.0
0.4707 70.0
0.4708 70.0
0.4709 70.0
0.471 70.0
0.4711 70.0
0.4712 70.0
0.4713 70.0
0.4714 70.0
0.4715 70.0
0.4716 70.0
0.4717 70.0
0.4718 70.0
0.4719 70.0
0.472 70.0
0.4721 70.0
0.4722 70.0
0.4723 70.0
0.4724 70.0
0.4725 70.0
0.4726 70.0
0.4727 70.0
0.4728 70.0
0.4729 70.0
0.473 70.0
0.4731 70.0
0.4732 70.0
0.4733 70.0
0.4734 70.0
0.4735 70.0
0.4736 70.0
0.4737 70.0
0.4738 70.0
0.4739 70.0
0.474 70.0
0.4741 70.0
0.4742 70.0
0.4743 70.0
0.4744 70.0
0.4745 70.0
0.4746 70.0
0.4747 70.0
0.4748 70.0
0.4749 70.0
0.475 70.0
0.4751 70.0
0.4752 70.0
0.4753 70.0
0.4754 70.0
0.4755 70.0
0.4756 70.0
0.4757 70.0
0.4758 70.0
0.4759 70.0
0.476 70.0
0.4761 70.0
0.4762 70.0
0.4763 70.0
0.4764 70.0
0.4765 70.0
0.4766 70.0
0.4767 70.0
0.4768 70.0
0.4769 70.0
0.477 70.0
0.4771 70.0
0.4772 70.0
0.4773 70.0
0.4774 70.0
0.4775 70.0
0.4776 70.0
0.4777 70.0
0.4778 70.0
0.4779 70.0
0.478 70.0
0.4781 70.0
0.4782 70.0
0.4783 70.0
0.4784 70.0
0.4785 70.0
0.4786 70.0
0.4787 70.0
0.4788 70.0
0.4789 70.0
0.479 70.0
0.4791 70.0
0.4792 70.0
0.4793 70.0
0.4794 70.0
0.4795 70.0
0.4796 70.0
0.4797 70.0
0.4798 70.0
0.4799 70.0
0.48 70.0
0.4801 70.0
0.4802 70.0
0.4803 70.0
0.4804 70.0
0.4805 70.0
0.4806 70.0
0.4807 70.0
0.4808 70.0
0.4809 70.0
0.481 70.0
0.4811 70.0
0.4812 70.0
0.4813 70.0
0.4814 70.0
0.4815 70.0
0.4816 70.0
0.4817 70.0
0.4818 70.0
0.4819 70.0
0.482 70.0
0.4821 70.0
0.4822 70.0
0.4823 70.0
0.4824 70.0
0.4825 70.0
0.4826 70.0
0.4827 70.0
0.4828 70.0
0.4829 70.0
0.483 70.0
0.4831 70.0
0.4832 70.0
0.4833 70.0
0.4834 70.0
0.4835 70.0
0.4836 70.0
0.4837 70.0
0.4838 70.0
0.4839 70.0
0.484 70.0
0.4841 70.0
0.4842 70.0
0.4843 70.0
0.4844 70.0
0.4845 70.0
0.4846 70.0
0.4847 70.0
0.4848 70.0
0.4849 70.0
0.485 70.0
0.4851 70.0
0.4852 70.0
0.4853 70.0
0.4854 70.0
0.4855 70.0
0.4856 70.0
0.4857 70.0
0.4858 70.0
0.4859 70.0
0.486 70.0
0.4861 70.0
0.4862 70.0
0.4863 70.0
0.4864 70.0
0.4865 70.0
0.4866 70.0
0.4867 70.0
0.4868 70.0
0.4869 70.0
0.487 70.0
0.4871 70.0
0.4872 70.0
0.4873 70.0
0.4874 70.0
0.4875 70.0
0.4876 70.0
0.4877 70.0
0.4878 70.0
0.4879 70.0
0.488 70.0
0.4881 70.0
0.4882 70.0
0.4883 70.0
0.4884 70.0
0.4885 70.0
0.4886 70.0
0.4887 70.0
0.4888 70.0
0.4889 70.0
0.489 70.0
0.4891 70.0
0.4892 70.0
0.4893 70.0
0.4894 70.0
0.4895 70.0
0.4896 70.0
0.4897 70.0
0.4898 70.0
0.4899 70.0
0.49 70.0
0.4901 70.0
0.4902 70.0
0.4903 70.0
0.4904 70.0
0.4905 70.0
0.4906 70.0
0.4907 70.0
0.4908 70.0
0.4909 70.0
0.491 70.0
0.4911 70.0
0.4912 70.0
0.4913 70.0
0.4914 70.0
0.4915 70.0
0.4916 70.0
0.4917 70.0
0.4918 70.0
0.4919 70.0
0.492 70.0
0.4921 70.0
0.4922 70.0
0.4923 70.0
0.4924 70.0
0.4925 70.0
0.4926 70.0
0.4927 70.0
0.4928 70.0
0.4929 70.0
0.493 70.0
0.4931 70.0
0.4932 70.0
0.4933 70.0
0.4934 70.0
0.4935 70.0
0.4936 70.0
0.4937 70.0
0.4938 70.0
0.4939 70.0
0.494 70.0
0.4941 70.0
0.4942 70.0
0.4943 70.0
0.4944 70.0
0.4945 70.0
0.4946 70.0
0.4947 70.0
0.4948 70.0
0.4949 70.0
0.495 70.0
0.4951 70.0
0.4952 70.0
0.4953 70.0
0.4954 70.0
0.4955 70.0
0.4956 70.0
0.4957 70.0
0.4958 70.0
0.4959 70.0
0.496 70.0
0.4961 70.0
0.4962 70.0
0.4963 70.0
0.4964 70.0
0.4965 70.0
0.4966 70.0
0.4967 70.0
0.4968 70.0
0.4969 70.0
0.497 70.0
0.4971 70.0
0.4972 70.0
0.4973 70.0
0.4974 70.0
0.4975 70.0
0.4976 70.0
0.4977 70.0
0.4978 70.0
0.4979 70.0
0.498 70.0
0.4981 70.0
0.4982 70.0
0.4983 70.0
0.4984 70.0
0.4985 70.0
0.4986 70.0
0.4987 70.0
0.4988 70.0
0.4989 70.0
0.499 70.0
0.4991 70.0
0.4992 70.0
0.4993 70.0
0.4994 70.0
0.4995 70.0
0.4996 70.0
0.4997 70.0
0.4998 70.0
0.4999 70.0
0.5 70.0
0.5001 70.0
0.5002 70.0
0.5003 70.0
0.5004 70.0
0.5005 70.0
0.5006 70.0
0.5007 70.0
0.5008 70.0
0.5009 70.0
0.501 70.0
0.5011 70.0
0.5012 70.0
0.5013 70.0
0.5014 70.0
0.5015 70.0
0.5016 70.0
0.5017 70.0
0.5018 70.0
0.5019 70.0
0.502 70.0
0.5021 70.0
0.5022 70.0
0.5023 70.0
0.5024 70.0
0.5025 70.0
0.5026 70.0
0.5027 70.0
0.5028 70.0
0.5029 70.0
0.503 70.0
0.5031 70.0
0.5032 70.0
0.5033 70.0
0.5034 70.0
0.5035 70.0
0.5036 70.0
0.5037 70.0
0.5038 70.0
0.5039 70.0
0.504 70.0
0.5041 70.0
0.5042 70.0
0.5043 70.0
0.5044 70.0
0.5045 70.0
0.5046 70.0
0.5047 70.0
0.5048 70.0
0.5049 70.0
0.505 70.0
0.5051 70.0
0.5052 70.0
0.5053 70.0
0.5054 70.0
0.5055 70.0
0.5056 70.0
0.5057 70.0
0.5058 70.0
0.5059 70.0
0.506 70.0
0.5061 70.0
0.5062 70.0
0.5063 70.0
0.5064 70.0
0.5065 70.0
0.5066 70.0
0.5067 70.0
0.5068 70.0
0.5069 70.0
0.507 70.0
0.5071 70.0
0.5072 70.0
0.5073 70.0
0.5074 70.0
0.5075 70.0
0.5076 70.0
0.5077 70.0
0.5078 70.0
0.5079 70.0
0.508 70.0
0.5081 70.0
0.5082 70.0
0.5083 70.0
0.5084 70.0
0.5085 70.0
0.5086 70.0
0.5087 70.0
0.5088 70.0
0.5089 70.0
0.509 70.0
0.5091 70.0
0.5092 70.0
0.5093 70.0
0.5094 70.0
0.5095 70.0
0.5096 70.0
0.5097 70.0
0.5098 70.0
0.5099 70.0
0.51 70.0
0.5101 70.0
0.5102 70.0
0.5103 70.0
0.5104 70.0
0.5105 70.0
0.5106 70.0
0.5107 70.0
0.5108 70.0
0.5109 70.0
0.511 70.0
0.5111 70.0
0.5112 70.0
0.5113 70.0
0.5114 70.0
0.5115 70.0
0.5116 70.0
0.5117 70.0
0.5118 70.0
0.5119 70.0
0.512 70.0
0.5121 70.0
0.5122 70.0
0.5123 70.0
0.5124 70.0
0.5125 70.0
0.5126 70.0
0.5127 70.0
0.5128 70.0
0.5129 70.0
0.513 70.0
0.5131 70.0
0.5132 70.0
0.5133 70.0
0.5134 70.0
0.5135 70.0
0.5136 70.0
0.5137 70.0
0.5138 70.0
0.5139 70.0
0.514 70.0
0.5141 70.0
0.5142 70.0
0.5143 70.0
0.5144 70.0
0.5145 70.0
0.5146 70.0
0.5147 70.0
0.5148 70.0
0.5149 70.0
0.515 70.0
0.5151 70.0
0.5152 70.0
0.5153 70.0
0.5154 70.0
0.5155 70.0
0.5156 70.0
0.5157 70.0
0.5158 70.0
0.5159 70.0
0.516 70.0
0.5161 70.0
0.5162 70.0
0.5163 70.0
0.5164 70.0
0.5165 70.0
0.5166 70.0
0.5167 70.0
0.5168 70.0
0.5169 70.0
0.517 70.0
0.5171 70.0
0.5172 70.0
0.5173 70.0
0.5174 70.0
0.5175 70.0
0.5176 70.0
0.5177 70.0
0.5178 70.0
0.5179 70.0
0.518 70.0
0.5181 70.0
0.5182 70.0
0.5183 70.0
0.5184 70.0
0.5185 70.0
0.5186 70.0
0.5187 70.0
0.5188 70.0
0.5189 70.0
0.519 70.0
0.5191 70.0
0.5192 70.0
0.5193 70.0
0.5194 70.0
0.5195 70.0
0.5196 70.0
0.5197 70.0
0.5198 70.0
0.5199 70.0
0.52 70.0
0.5201 70.0
0.5202 70.0
0.5203 70.0
0.5204 70.0
0.5205 70.0
0.5206 70.0
0.5207 70.0
0.5208 70.0
0.5209 70.0
0.521 70.0
0.5211 70.0
0.5212 70.0
0.5213 70.0
0.5214 70.0
0.5215 70.0
0.5216 70.0
0.5217 70.0
0.5218 70.0
0.5219 70.0
0.522 70.0
0.5221 70.0
0.5222 70.0
0.5223 70.0
0.5224 70.0
0.5225 70.0
0.5226 70.0
0.5227 70.0
0.5228 70.0
0.5229 70.0
0.523 70.0
0.5231 70.0
0.5232 70.0
0.5233 70.0
0.5234 70.0
0.5235 70.0
0.5236 70.0
0.5237 70.0
0.5238 70.0
0.5239 70.0
0.524 70.0
0.5241 70.0
0.5242 70.0
0.5243 70.0
0.5244 70.0
0.5245 70.0
0.5246 70.0
0.5247 70.0
0.5248 70.0
0.5249 70.0
0.525 70.0
0.5251 70.0
0.5252 70.0
0.5253 70.0
0.5254 70.0
0.5255 70.0
0.5256 70.0
0.5257 70.0
0.5258 70.0
0.5259 70.0
0.526 70.0
0.5261 70.0
0.5262 70.0
0.5263 70.0
0.5264 70.0
0.5265 70.0
0.5266 70.0
0.5267 70.0
0.5268 70.0
0.5269 70.0
0.527 70.0
0.5271 70.0
0.5272 70.0
0.5273 70.0
0.5274 70.0
0.5275 70.0
0.5276 70.0
0.5277 70.0
0.5278 70.0
0.5279 70.0
0.528 70.0
0.5281 70.0
0.5282 70.0
0.5283 70.0
0.5284 70.0
0.5285 70.0
0.5286 70.0
0.5287 70.0
0.5288 70.0
0.5289 70.0
0.529 70.0
0.5291 70.0
0.5292 70.0
0.5293 70.0
0.5294 70.0
0.5295 70.0
0.5296 70.0
0.5297 70.0
0.5298 70.0
0.5299 70.0
0.53 70.0
0.5301 70.0
0.5302 70.0
0.5303 70.0
0.5304 70.0
0.5305 70.0
0.5306 70.0
0.5307 70.0
0.5308 70.0
0.5309 70.0
0.531 70.0
0.5311 70.0
0.5312 70.0
0.5313 70.0
0.5314 70.0
0.5315 70.0
0.5316 70.0
0.5317 70.0
0.5318 70.0
0.5319 70.0
0.532 70.0
0.5321 70.0
0.5322 70.0
0.5323 70.0
0.5324 70.0
0.5325 70.0
0.5326 70.0
0.5327 70.0
0.5328 70.0
0.5329 70.0
0.533 70.0
0.5331 70.0
0.5332 70.0
0.5333 70.0
0.5334 70.0
0.5335 70.0
0.5336 70.0
0.5337 70.0
0.5338 70.0
0.5339 70.0
0.534 70.0
0.5341 70.0
0.5342 70.0
0.5343 70.0
0.5344 70.0
0.5345 70.0
0.5346 70.0
0.5347 70.0
0.5348 70.0
0.5349 70.0
0.535 70.0
0.5351 70.0
0.5352 70.0
0.5353 70.0
0.5354 70.0
0.5355 70.0
0.5356 70.0
0.5357 70.0
0.5358 70.0
0.5359 70.0
0.536 70.0
0.5361 70.0
0.5362 70.0
0.5363 70.0
0.5364 70.0
0.5365 70.0
0.5366 70.0
0.5367 70.0
0.5368 70.0
0.5369 70.0
0.537 70.0
0.5371 70.0
0.5372 70.0
0.5373 70.0
0.5374 70.0
0.5375 70.0
0.5376 70.0
0.5377 70.0
0.5378 70.0
0.5379 70.0
0.538 70.0
0.5381 70.0
0.5382 70.0
0.5383 70.0
0.5384 70.0
0.5385 70.0
0.5386 70.0
0.5387 70.0
0.5388 70.0
0.5389 70.0
0.539 70.0
0.5391 70.0
0.5392 70.0
0.5393 70.0
0.5394 70.0
0.5395 70.0
0.5396 70.0
0.5397 70.0
0.5398 70.0
0.5399 70.0
0.54 70.0
0.5401 70.0
0.5402 70.0
0.5403 70.0
0.5404 70.0
0.5405 70.0
0.5406 70.0
0.5407 70.0
0.5408 70.0
0.5409 70.0
0.541 70.0
0.5411 70.0
0.5412 70.0
0.5413 70.0
0.5414 70.0
0.5415 70.0
0.5416 70.0
0.5417 70.0
0.5418 70.0
0.5419 70.0
0.542 70.0
0.5421 70.0
0.5422 70.0
0.5423 70.0
0.5424 70.0
0.5425 70.0
0.5426 70.0
0.5427 70.0
0.5428 70.0
0.5429 70.0
0.543 70.0
0.5431 70.0
0.5432 70.0
0.5433 70.0
0.5434 70.0
0.5435 70.0
0.5436 70.0
0.5437 70.0
0.5438 70.0
0.5439 70.0
0.544 70.0
0.5441 70.0
0.5442 70.0
0.5443 70.0
0.5444 70.0
0.5445 70.0
0.5446 70.0
0.5447 70.0
0.5448 70.0
0.5449 70.0
0.545 70.0
0.5451 70.0
0.5452 70.0
0.5453 70.0
0.5454 70.0
0.5455 70.0
0.5456 70.0
0.5457 70.0
0.5458 70.0
0.5459 70.0
0.546 70.0
0.5461 70.0
0.5462 70.0
0.5463 70.0
0.5464 70.0
0.5465 70.0
0.5466 70.0
0.5467 70.0
0.5468 70.0
0.5469 70.0
0.547 70.0
0.5471 70.0
0.5472 70.0
0.5473 70.0
0.5474 70.0
0.5475 70.0
0.5476 70.0
0.5477 70.0
0.5478 70.0
0.5479 70.0
0.548 70.0
0.5481 70.0
0.5482 70.0
0.5483 70.0
0.5484 70.0
0.5485 70.0
0.5486 70.0
0.5487 70.0
0.5488 70.0
0.5489 70.0
0.549 70.0
0.5491 70.0
0.5492 70.0
0.5493 70.0
0.5494 70.0
0.5495 70.0
0.5496 70.0
0.5497 70.0
0.5498 70.0
0.5499 70.0
0.55 70.0
0.5501 70.0
0.5502 70.0
0.5503 70.0
0.5504 70.0
0.5505 70.0
0.5506 70.0
0.5507 70.0
0.5508 70.0
0.5509 70.0
0.551 70.0
0.5511 70.0
0.5512 70.0
0.5513 70.0
0.5514 70.0
0.5515 70.0
0.5516 70.0
0.5517 70.0
0.5518 70.0
0.5519 70.0
0.552 70.0
0.5521 70.0
0.5522 70.0
0.5523 70.0
0.5524 70.0
0.5525 70.0
0.5526 70.0
0.5527 70.0
0.5528 70.0
0.5529 70.0
0.553 70.0
0.5531 70.0
0.5532 70.0
0.5533 70.0
0.5534 70.0
0.5535 70.0
0.5536 70.0
0.5537 70.0
0.5538 70.0
0.5539 70.0
0.554 70.0
0.5541 70.0
0.5542 70.0
0.5543 70.0
0.5544 70.0
0.5545 70.0
0.5546 70.0
0.5547 70.0
0.5548 70.0
0.5549 70.0
0.555 70.0
0.5551 70.0
0.5552 70.0
0.5553 70.0
0.5554 70.0
0.5555 70.0
0.5556 70.0
0.5557 70.0
0.5558 70.0
0.5559 70.0
0.556 70.0
0.5561 70.0
0.5562 70.0
0.5563 70.0
0.5564 70.0
0.5565 70.0
0.5566 70.0
0.5567 70.0
0.5568 70.0
0.5569 70.0
0.557 70.0
0.5571 70.0
0.5572 70.0
0.5573 70.0
0.5574 70.0
0.5575 70.0
0.5576 70.0
0.5577 70.0
0.5578 70.0
0.5579 70.0
0.558 70.0
0.5581 70.0
0.5582 70.0
0.5583 70.0
0.5584 70.0
0.5585 70.0
0.5586 70.0
0.5587 70.0
0.5588 70.0
0.5589 70.0
0.559 70.0
0.5591 70.0
0.5592 70.0
0.5593 70.0
0.5594 70.0
0.5595 70.0
0.5596 70.0
0.5597 70.0
0.5598 70.0
0.5599 70.0
0.56 70.0
0.5601 70.0
0.5602 70.0
0.5603 70.0
0.5604 70.0
0.5605 70.0
0.5606 70.0
0.5607 70.0
0.5608 70.0
0.5609 70.0
0.561 70.0
0.5611 70.0
0.5612 70.0
0.5613 70.0
0.5614 70.0
0.5615 70.0
0.5616 70.0
0.5617 70.0
0.5618 70.0
0.5619 70.0
0.562 70.0
0.5621 70.0
0.5622 70.0
0.5623 70.0
0.5624 70.0
0.5625 70.0
0.5626 70.0
0.5627 70.0
0.5628 70.0
0.5629 70.0
0.563 70.0
0.5631 70.0
0.5632 70.0
0.5633 70.0
0.5634 70.0
0.5635 70.0
0.5636 70.0
0.5637 70.0
0.5638 70.0
0.5639 70.0
0.564 70.0
0.5641 70.0
0.5642 70.0
0.5643 70.0
0.5644 70.0
0.5645 70.0
0.5646 70.0
0.5647 70.0
0.5648 70.0
0.5649 70.0
0.565 70.0
0.5651 70.0
0.5652 70.0
0.5653 70.0
0.5654 70.0
0.5655 70.0
0.5656 70.0
0.5657 70.0
0.5658 70.0
0.5659 70.0
0.566 70.0
0.5661 70.0
0.5662 70.0
0.5663 70.0
0.5664 70.0
0.5665 70.0
0.5666 70.0
0.5667 70.0
0.5668 70.0
0.5669 70.0
0.567 70.0
0.5671 70.0
0.5672 70.0
0.5673 70.0
0.5674 70.0
0.5675 70.0
0.5676 70.0
0.5677 70.0
0.5678 70.0
0.5679 70.0
0.568 70.0
0.5681 70.0
0.5682 70.0
0.5683 70.0
0.5684 70.0
0.5685 70.0
0.5686 70.0
0.5687 70.0
0.5688 70.0
0.5689 70.0
0.569 70.0
0.5691 70.0
0.5692 70.0
0.5693 70.0
0.5694 70.0
0.5695 70.0
0.5696 70.0
0.5697 70.0
0.5698 70.0
0.5699 70.0
0.57 70.0
0.5701 70.0
0.5702 70.0
0.5703 70.0
0.5704 70.0
0.5705 70.0
0.5706 70.0
0.5707 70.0
0.5708 70.0
0.5709 70.0
0.571 70.0
0.5711 70.0
0.5712 70.0
0.5713 70.0
0.5714 70.0
0.5715 70.0
0.5716 70.0
0.5717 70.0
0.5718 70.0
0.5719 70.0
0.572 70.0
0.5721 70.0
0.5722 70.0
0.5723 70.0
0.5724 70.0
0.5725 70.0
0.5726 70.0
0.5727 70.0
0.5728 70.0
0.5729 70.0
0.573 70.0
0.5731 70.0
0.5732 70.0
0.5733 70.0
0.5734 70.0
0.5735 70.0
0.5736 70.0
0.5737 70.0
0.5738 70.0
0.5739 70.0
0.574 70.0
0.5741 70.0
0.5742 70.0
0.5743 70.0
0.5744 70.0
0.5745 70.0
0.5746 70.0
0.5747 70.0
0.5748 70.0
0.5749 70.0
0.575 70.0
0.5751 70.0
0.5752 70.0
0.5753 70.0
0.5754 70.0
0.5755 70.0
0.5756 70.0
0.5757 70.0
0.5758 70.0
0.5759 70.0
0.576 70.0
0.5761 70.0
0.5762 70.0
0.5763 70.0
0.5764 70.0
0.5765 70.0
0.5766 70.0
0.5767 70.0
0.5768 70.0
0.5769 70.0
0.577 70.0
0.5771 70.0
0.5772 70.0
0.5773 70.0
0.5774 70.0
0.5775 70.0
0.5776 70.0
0.5777 70.0
0.5778 70.0
0.5779 70.0
0.578 70.0
0.5781 70.0
0.5782 70.0
0.5783 70.0
0.5784 70.0
0.5785 70.0
0.5786 70.0
0.5787 70.0
0.5788 70.0
0.5789 70.0
0.579 70.0
0.5791 70.0
0.5792 70.0
0.5793 70.0
0.5794 70.0
0.5795 70.0
0.5796 70.0
0.5797 70.0
0.5798 70.0
0.5799 70.0
0.58 70.0
0.5801 70.0
0.5802 70.0
0.5803 70.0
0.5804 70.0
0.5805 70.0
0.5806 70.0
0.5807 70.0
0.5808 70.0
0.5809 70.0
0.581 70.0
0.5811 70.0
0.5812 70.0
0.5813 70.0
0.5814 70.0
0.5815 70.0
0.5816 70.0
0.5817 70.0
0.5818 70.0
0.5819 70.0
0.582 70.0
0.5821 70.0
0.5822 70.0
0.5823 70.0
0.5824 70.0
0.5825 70.0
0.5826 70.0
0.5827 70.0
0.5828 70.0
0.5829 70.0
0.583 70.0
0.5831 70.0
0.5832 70.0
0.5833 70.0
0.5834 70.0
0.5835 70.0
0.5836 70.0
0.5837 70.0
0.5838 70.0
0.5839 70.0
0.584 70.0
0.5841 70.0
0.5842 70.0
0.5843 70.0
0.5844 70.0
0.5845 70.0
0.5846 70.0
0.5847 70.0
0.5848 70.0
0.5849 70.0
0.585 70.0
0.5851 70.0
0.5852 70.0
0.5853 70.0
0.5854 70.0
0.5855 70.0
0.5856 70.0
0.5857 70.0
0.5858 70.0
0.5859 70.0
0.586 70.0
0.5861 70.0
0.5862 70.0
0.5863 70.0
0.5864 70.0
0.5865 70.0
0.5866 70.0
0.5867 70.0
0.5868 70.0
0.5869 70.0
0.587 70.0
0.5871 70.0
0.5872 70.0
0.5873 70.0
0.5874 70.0
0.5875 70.0
0.5876 70.0
0.5877 70.0
0.5878 70.0
0.5879 70.0
0.588 70.0
0.5881 70.0
0.5882 70.0
0.5883 70.0
0.5884 70.0
0.5885 70.0
0.5886 70.0
0.5887 70.0
0.5888 70.0
0.5889 70.0
0.589 70.0
0.5891 70.0
0.5892 70.0
0.5893 70.0
0.5894 70.0
0.5895 70.0
0.5896 70.0
0.5897 70.0
0.5898 70.0
0.5899 70.0
0.59 70.0
0.5901 70.0
0.5902 70.0
0.5903 70.0
0.5904 70.0
0.5905 70.0
0.5906 70.0
0.5907 70.0
0.5908 70.0
0.5909 70.0
0.591 70.0
0.5911 70.0
0.5912 70.0
0.5913 70.0
0.5914 70.0
0.5915 70.0
0.5916 70.0
0.5917 70.0
0.5918 70.0
0.5919 70.0
0.592 70.0
0.5921 70.0
0.5922 70.0
0.5923 70.0
0.5924 70.0
0.5925 70.0
0.5926 70.0
0.5927 70.0
0.5928 70.0
0.5929 70.0
0.593 70.0
0.5931 70.0
0.5932 70.0
0.5933 70.0
0.5934 70.0
0.5935 70.0
0.5936 70.0
0.5937 70.0
0.5938 70.0
0.5939 70.0
0.594 70.0
0.5941 70.0
0.5942 70.0
0.5943 70.0
0.5944 70.0
0.5945 70.0
0.5946 70.0
0.5947 70.0
0.5948 70.0
0.5949 70.0
0.595 70.0
0.5951 70.0
0.5952 70.0
0.5953 70.0
0.5954 70.0
0.5955 70.0
0.5956 70.0
0.5957 70.0
0.5958 70.0
0.5959 70.0
0.596 70.0
0.5961 70.0
0.5962 70.0
0.5963 70.0
0.5964 70.0
0.5965 70.0
0.5966 70.0
0.5967 70.0
0.5968 70.0
0.5969 70.0
0.597 70.0
0.5971 70.0
0.5972 70.0
0.5973 70.0
0.5974 70.0
0.5975 70.0
0.5976 70.0
0.5977 70.0
0.5978 70.0
0.5979 70.0
0.598 70.0
0.5981 70.0
0.5982 70.0
0.5983 70.0
0.5984 70.0
0.5985 70.0
0.5986 70.0
0.5987 70.0
0.5988 70.0
0.5989 70.0
0.599 70.0
0.5991 70.0
0.5992 70.0
0.5993 70.0
0.5994 70.0
0.5995 70.0
0.5996 70.0
0.5997 70.0
0.5998 70.0
0.5999 70.0
0.6 70.0
0.605 70.0
0.61 70.0
0.615 70.0
0.62 70.0
0.625 70.0
0.63 70.0
0.635 70.0
0.64 70.0
0.645 70.0
0.65 70.0
0.655 70.0
0.66 70.0
0.665 70.0
0.67 70.0
0.675 70.0
0.68 70.0
0.685 70.0
0.69 70.0
0.695 70.0
0.7 70.0
0.705 70.0
0.71 70.0
0.715 70.0
0.72 70.0
0.725 70.0
0.73 70.0
0.735 70.0
0.74 70.0
0.745 70.0
0.75 70.0
0.755 70.0
0.76 70.0
0.765 70.0
0.77 70.0
0.775 70.0
0.78 70.0
0.785 70.0
0.79 70.0
0.795 70.0
0.8 70.0
0.805 70.0
0.81 70.0
0.815 70.0
0.82 70.0
0.825 70.0
0.83 70.0
0.835 70.0
0.84 70.0
0.845 70.0
0.85 70.0
0.855 70.0
0.86 70.0
0.865 70.0
0.87 70.0
0.875 70.0
0.88 70.0
0.885 70.0
0.89 70.0
0.895 70.0
0.9 70.0
0.905 70.0
0.91 70.0
0.915 70.0
0.92 70.0
0.925 70.0
0.93 70.0
0.935 70.0
0.94 70.0
0.945 70.0
0.95 70.0
0.955 70.0
0.96 70.0
0.965 70.0
0.97 70.0
0.975 70.0
0.98 70.0
0.985 70.0
0.99 70.0
0.995 70.0
1.0 70.0
1.005 70.0
1.01 70.0
1.015 70.0
1.02 70.0
1.025 70.0
1.03 70.0
1.035 70.0
1.04 70.0
1.045 70.0
1.05 70.0
1.055 70.0
1.06 70.0
1.065 70.0
1.07 70.0
1.075 70.0
1.08 70.0
1.085 70.0
1.09 70.0
1.095 70.0
1.1 70.0
1.105 70.0
1.11 70.0
1.115 70.0
1.12 70.0
1.125 70.0
1.13 70.0
1.135 70.0
1.14 70.0
1.145 70.0
1.15 70.0
1.155 70.0
1.16 70.0
1.165 70.0
1.17 70.0
1.175 70.0
1.18 70.0
1.185 70.0
1.19 70.0
1.195 70.0
1.2 70.0
1.205 70.0
1.21 70.0
1.215 70.0
1.22 70.0
1.225 70.0
1.23 70.0
1.235 70.0
1.24 70.0
1.245 70.0
1.25 70.0
1.255 70.0
1.26 70.0
1.265 70.0
1.27 70.0
1.275 70.0
1.28 70.0
1.285 70.0
1.29 70.0
1.295 70.0
1.3 70.0
1.305 70.0
1.31 70.0
1.315 70.0
1.32 70.0
1.325 70.0
1.33 70.0
1.335 70.0
1.34 70.0
1.345 70.0
1.35 70.024011
1.355 70.129434
1.36 70.234681
1.365 70.339754
1.37 70.444652
1.375 70.549378
1.38 70.653931
1.385 70.758312
1.39 70.862522
1.395 70.966562
1.4 71.070433
1.405 71.174135
1.41 71.277669
1.415 71.381036
1.42 71.484236
1.425 71.58727
1.43 71.69014
1.435 71.792845
1.44 71.895387
1.445 71.997765
1.45 72.099982
1.455 72.202036
1.46 72.30393
1.465 72.405664
1.47 72.507238
1.475 72.608654
1.48 72.709911
1.485 72.811011
1.49 72.911953
1.495 73.01274
1.5 73.113371
1.505 73.213847
1.51 73.314169
1.515 73.414337
1.52 73.514352
1.525 73.614215
1.53 73.713925
1.535 73.813485
1.54 73.912894
1.545 74.012153
1.55 74.111263
1.555 74.210224
1.56 74.309037
1.565 74.407703
1.57 74.506221
1.575 74.604593
1.58 74.702819
1.585 74.8009
1.59 74.898836
1.595 74.996628
1.6 75.094277
1.605 75.191782
1.61 75.289145
1.615 75.386367
1.62 75.483447
1.625 75.580386
1.63 75.677184
1.635 75.773844
1.64 75.870364
1.645 75.966745
1.65 76.062988
1.655 76.159094
1.66 76.255062
1.665 76.350894
1.67 76.44659
1.675 76.54215
1.68 76.637576
1.685 76.732867
1.69 76.828023
1.695 76.923047
1.7 77.017937
1.705 77.112695
1.71 77.20732
1.715 77.301814
1.72 77.396177
1.725 77.49041
1.73 77.584512
1.735 77.678484
1.74 77.772328
1.745 77.866043
1.75 77.959629
1.755 78.053088
1.76 78.146419
1.765 78.239623
1.77 78.332701
1.775 78.425653
1.78 78.51848
1.785 78.611181
1.79 78.703758
1.795 78.79621
1.8 78.888539
1.805 78.980745
1.81 79.072827
1.815 79.164787
1.82 79.256625
1.825 79.348341
1.83 79.439937
1.835 79.531411
1.84 79.622765
1.845 79.713999
1.85 79.805114
1.855 79.896109
1.86 79.986986
1.865 80.077744
1.87 80.168384
1.875 80.258907
1.88 80.349313
1.885 80.439602
1.89 80.529775
1.895 80.619831
1.9 80.709773
1.905 80.799599
1.91 80.88931
1.915 80.978907
1.92 81.068389
1.925 81.157759
1.93 81.247015
1.935 81.336157
1.94 81.425188
1.945 81.514106
1.95 81.602913
1.955 81.691608
1.96 81.780192
1.965 81.868665
1.97 81.957028
1.975 82.045281
1.98 82.133424
1.985 82.221458
1.99 82.309383
1.995 82.397199
2.0 82.484908
2.005 82.572508
2.01 82.660001
2.015 82.747386
2.02 82.834665
2.025 82.921837
2.03 83.008903
2.035 83.095863
2.04 83.182718
2.045 83.269467
2.05 83.356112
2.055 83.442652
2.06 83.529087
2.065 83.615419
2.07 83.701647
2.075 83.787772
2.08 83.873794
2.085 83.959714
2.09 84.045531
2.095 84.131246
2.1 84.216859
2.105 84.302371
2.11 84.387782
2.115 84.473093
2.12 84.558302
2.125 84.643412
2.13 84.728422
2.135 84.813332
2.14 84.898143
2.145 84.982855
2.15 85.067468
2.155 85.151983
2.16 85.2364
2.165 85.320719
2.17 85.404941
2.175 85.489065
2.18 85.573093
2.185 85.657024
2.19 85.740858
2.195 85.824597
2.2 85.908239
2.205 85.991787
2.21 86.075239
2.215 86.158596
2.22 86.241858
2.225 86.325026
2.23 86.4081
2.235 86.49108
2.24 86.573966
2.245 86.656759
2.25 86.739459
2.255 86.822066
2.26 86.904581
2.265 86.987003
2.27 87.069334
2.275 87.151572
2.28 87.23372
2.285 87.315776
2.29 87.397741
2.295 87.479615
2.3 87.561399
2.305 87.643093
2.31 87.724696
2.315 87.806211
2.32 87.887635
2.325 87.968971
2.33 88.050217
2.335 88.131375
2.34 88.212444
2.345 88.293425
2.35 88.374318
2.355 88.455124
2.36 88.535842
2.365 88.616472
2.37 88.697016
2.375 88.777473
2.38 88.857843
2.385 88.938127
2.39 89.018325
2.395 89.098437
2.4 89.178464
2.405 89.258405
2.41 89.338261
2.415 89.418032
2.42 89.497718
2.425 89.57732
2.43 89.656838
2.435 89.736271
2.44 89.815621
2.445 89.894888
2.45 89.97407
2.455 90.05317
2.46 90.132187
2.465 90.211121
2.47 90.289973
2.475 90.368742
2.48 90.44743
2.485 90.526035
2.49 90.604559
2.495 90.683002
2.5 90.761363
2.505 90.839643
2.51 90.917843
2.515 90.995962
2.52 91.074
2.525 91.151959
2.53 91.229837
2.535 91.307636
2.54 91.385355
2.545 91.462995
2.55 91.540556
2.555 91.618038
2.56 91.695441
2.565 91.772765
2.57 91.850011
2.575 91.927179
2.58 92.004269
2.585 92.081282
2.59 92.158216
2.595 92.235074
2.6 92.311854
2.605 92.388557
2.61 92.465184
2.615 92.541734
2.62 92.618207
2.625 92.694604
2.63 92.770926
2.635 92.847171
2.64 92.923341
2.645 92.999435
2.65 93.075454
2.655 93.151398
2.66 93.227267
2.665 93.303061
2.67 93.378781
2.675 93.454426
2.68 93.529997
2.685 93.605495
2.69 93.680918
2.695 93.756268
2.7 93.831544
2.705 93.906747
2.71 93.981876
2.715 94.056933
2.72 94.131917
2.725 94.206829
2.73 94.281668
2.735 94.356435
2.74 94.431129
2.745 94.505752
2.75 94.580303
2.755 94.654783
2.76 94.729191
2.765 94.803528
2.77 94.877793
2.775 94.951988
2.78 95.026112
2.785 95.100166
2.79 95.174149
2.795 95.248062
2.8 95.321905
2.805 95.395678
2.81 95.469381
2.815 95.543015
2.82 95.616579
2.825 95.690074
2.83 95.7635
2.835 95.836857
2.84 95.910145
2.845 95.983364
2.85 96.056515
2.855 96.129598
2.86 96.202613
2.865 96.275559
2.87 96.348438
2.875 96.421249
2.88 96.493992
2.885 96.566668
2.89 96.639277
2.895 96.711818
2.9 96.784293
2.905 96.856701
2.91 96.929042
2.915 97.001317
2.92 97.073526
2.925 97.145668
2.93 97.217744
2.935 97.289754
2.94 97.361699
2.945 97.433578
2.95 97.505391
2.955 97.57714
2.96 97.648823
2.965 97.72044
2.97 97.791994
2.975 97.863482
2.98 97.934906
2.985 98.006265
2.99 98.07756
2.995 98.148791
3.0 98.219957
3.005 98.29106
3.01 98.362099
3.015 98.433074
3.02 98.503986
3.025 98.574835
3.03 98.64562
3.035 98.716343
3.04 98.787002
3.045 98.857598
3.05 98.928132
3.055 98.998604
3.06 99.069012
3.065 99.139359
3.07 99.209644
3.075 99.279866
3.08 99.350027
3.085 99.420125
3.09 99.490163
3.095 99.560138
3.1 99.630053
3.105 99.699906
3.11 99.769698
3.115 99.839429
3.12 99.909099
3.125 99.978709
3.13 100.048258
3.135 100.117746
3.14 100.187174
3.145 100.256542
3.15 100.32585
3.155 100.395098
3.16 100.464286
3.165 100.533414
3.17 100.602483
3.175 100.671492
3.18 100.740442
3.185 100.809332
3.19 100.878164
3.195 100.946937
3.2 101.01565
3.205 101.084305
3.21 101.152902
3.215 101.221439
3.22 101.289919
3.225 101.35834
3.23 101.426703
3.235 101.495008
3.24 101.563255
3.245 101.631444
3.25 101.699576
3.255 101.76765
3.26 101.835667
3.265 101.903626
3.27 101.971528
3.275 102.039373
3.28 102.107161
3.285 102.174892
3.29 102.242566
3.295 102.310184
3.3 102.377745
3.305 102.445249
3.31 102.512698
3.315 102.58009
3.32 102.647426
3.325 102.714706
3.33 102.78193
3.335 102.849098
3.34 102.916211
3.345 102.983268
3.35 103.05027
3.355 103.117216
3.36 103.184108
3.365 103.250944
3.37 103.317725
3.375 103.384451
3.38 103.451122
3.385 103.517739
3.39 103.584301
3.395 103.650809
3.4 103.717262
3.405 103.783661
3.41 103.850006
3.415 103.916296
3.42 103.982533
3.425 104.048716
3.43 104.114845
3.435 104.180921
3.44 104.246943
3.445 104.312911
3.45 104.378826
3.455 104.444688
3.46 104.510497
3.465 104.576253
3.47 104.641955
3.475 104.707605
3.48 104.773202
3.485 104.838747
3.49 104.904239
3.495 104.969678
3.5 105.035066
3.505 105.1004
3.51 105.165683
3.515 105.230914
3.52 105.296093
3.525 105.36122
3.53 105.426295
3.535 105.491318
3.54 105.55629
3.545 105.62121
3.55 105.686079
3.555 105.750897
3.56 105.815663
3.565 105.880379
3.57 105.945043
3.575 106.009657
3.58 106.074219
3.585 106.138731
3.59 106.203192
3.595 106.267603
3.6 106.331963
3.605 106.396273
3.61 106.460533
3.615 106.524742
3.62 106.588901
3.625 106.653011
3.63 106.71707
3.635 106.78108
3.64 106.845039
3.645 106.90895
3.65 106.97281
3.655 107.036622
3.66 107.100383
3.665 107.164096
3.67 107.227759
3.675 107.291373
3.68 107.354938
3.685 107.418455
3.69 107.481922
3.695 107.545341
3.7 107.608711
3.705 107.672032
3.71 107.735305
3.715 107.798529
3.72 107.861705
3.725 107.924833
3.73 107.987913
3.735 108.050944
3.74 108.113928
3.745 108.176863
3.75 108.239751
3.755 108.302591
3.76 108.365384
3.765 108.428129
3.77 108.490826
3.775 108.553476
3.78 108.616078
3.785 108.678634
3.79 108.741142
3.795 108.803603
3.8 108.866017
3.805 108.928384
3.81 108.990704
3.815 109.052978
3.82 109.115204
3.825 109.177385
3.83 109.239518
3.835 109.301605
3.84 109.363646
3.845 109.425641
3.85 109.487589
3.855 109.549491
3.86 109.611347
3.865 109.673157
3.87 109.734922
3.875 109.79664
3.88 109.858313
3.885 109.91994
3.89 109.981521
3.895 110.043057
3.9 110.104548
3.905 110.165993
3.91 110.227392
3.915 110.288747
3.92 110.350057
3.925 110.411321
3.93 110.47254
3.935 110.533715
3.94 110.594844
3.945 110.655929
3.95 110.71697
3.955 110.777965
3.96 110.838916
3.965 110.899823
3.97 110.960685
3.975 111.021503
3.98 111.082276
3.985 111.143006
3.99 111.203691
3.995 111.264332
4.0 111.32493
4.005 111.385483
4.01 111.445993
4.015 111.506459
4.02 111.566881
4.025 111.62726
4.03 111.687595
4.035 111.747886
4.04 111.808135
4.045 111.868339
4.05 111.928501
4.055 111.98862
4.06 112.048695
4.065 112.108727
4.07 112.168717
4.075 112.228663
4.08 112.288567
4.085 112.348427
4.09 112.408245
4.095 112.468021
4.1 112.527754
4.105 112.587444
4.11 112.647092
4.115 112.706698
4.12 112.766261
4.125 112.825782
4.13 112.885261
4.135 112.944698
4.14 113.004093
4.145 113.063446
4.15 113.122757
4.155 113.182026
4.16 113.241254
4.165 113.300439
4.17 113.359583
4.175 113.418686
4.18 113.477747
4.185 113.536766
4.19 113.595745
4.195 113.654681
4.2 113.713577
4.205 113.772431
4.21 113.831245
4.215 113.890017
4.22 113.948748
4.225 114.007439
4.23 114.066088
4.235 114.124697
4.24 114.183265
4.245 114.241792
4.25 114.300279
4.255 114.358725
4.26 114.417131
4.265 114.475496
4.27 114.533821
4.275 114.592105
4.28 114.65035
4.285 114.708554
4.29 114.766718
4.295 114.824842
4.3 114.882926
4.305 114.94097
4.31 114.998974
4.315 115.056938
4.32 115.114863
4.325 115.172748
4.33 115.230593
4.335 115.288399
4.34 115.346165
4.345 115.403891
4.35 115.461579
4.355 115.519227
4.36 115.576835
4.365 115.634405
4.37 115.691935
4.375 115.749426
4.38 115.806878
4.385 115.864292
4.39 115.921666
4.395 115.979001
4.4 116.036298
4.405 116.093556
4.41 116.150775
4.415 116.207955
4.42 116.265097
4.425 116.3222
4.43 116.379265
4.435 116.436292
4.44 116.49328
4.445 116.55023
4.45 116.607141
4.455 116.664014
4.46 116.72085
4.465 116.777647
4.47 116.834406
4.475 116.891127
4.48 116.94781
4.485 117.004456
4.49 117.061063
4.495 117.117633
4.5 117.174165
4.505 117.23066
4.51 117.287117
4.515 117.343536
4.52 117.399918
4.525 117.456262
4.53 117.51257
4.535 117.568839
4.54 117.625072
4.545 117.681267
4.55 117.737425
4.555 117.793547
4.56 117.849631
4.565 117.905678
4.57 117.961688
4.575 118.017661
4.58 118.073597
4.585 118.129497
4.59 118.18536
4.595 118.241186
4.6 118.296975
4.605 118.352728
4.61 118.408445
4.615 118.464125
4.62 118.519768
4.625 118.575376
4.63 118.630946
4.635 118.686481
4.64 118.741979
4.645 118.797442
4.65 118.852868
4.655 118.908258
4.66 118.963612
4.665 119.01893
4.67 119.074212
4.675 119.129458
4.68 119.184669
4.685 119.239843
4.69 119.294982
4.695 119.350085
4.7 119.405153
4.705 119.460185
4.71 119.515182
4.715 119.570143
4.72 119.625069
4.725 119.679959
4.73 119.734814
4.735 119.789634
4.74 119.844418
4.745 119.899168
4.75 119.953882
4.755 120.008561
4.76 120.063205
4.765 120.117814
4.77 120.172388
4.775 120.226927
4.78 120.281432
4.785 120.335902
4.79 120.390336
4.795 120.444737
4.8 120.499102
4.805 120.553433
4.81 120.607729
4.815 120.661991
4.82 120.716219
4.825 120.770411
4.83 120.82457
4.835 120.878694
4.84 120.932784
4.845 120.98684
4.85 121.040861
4.855 121.094849
4.86 121.148802
4.865 121.202721
4.87 121.256607
4.875 121.310458
4.88 121.364275
4.885 121.418059
4.89 121.471808
4.895 121.525524
4.9 121.579206
4.905 121.632855
4.91 121.686469
4.915 121.740051
4.92 121.793598
4.925 121.847112
4.93 121.900593
4.935 121.95404
4.94 122.007454
4.945 122.060834
4.95 122.114182
4.955 122.167496
4.96 122.220776
4.965 122.274024
4.97 122.327238
4.975 122.38042
4.98 122.433568
4.985 122.486683
4.99 122.539766
4.995 122.592815
5.0 122.645832
5.005 122.698815
5.01 122.751766
5.015 122.804685
5.02 122.85757
5.025 122.910423
5.03 122.963243
5.035 123.016031
5.04 123.068786
5.045 123.121509
5.05 123.174199
5.055 123.226857
5.06 123.279483
5.065 123.332076
5.07 123.384637
5.075 123.437165
5.08 123.489662
5.085 123.542126
5.09 123.594558
5.095 123.646958
5.1 123.699327
5.105 123.751663
5.11 123.803967
5.115 123.856239
5.12 123.90848
5.125 123.960688
5.13 124.012865
5.135 124.06501
5.14 124.117123
5.145 124.169205
5.15 124.221255
5.155 124.273273
5.16 124.32526
5.165 124.377215
5.17 124.429139
5.175 124.481032
5.18 124.532893
5.185 124.584723
5.19 124.636521
5.195 124.688288
5.2 124.740024
5.205 124.791729
5.21 124.843402
5.215 124.895045
5.22 124.946656
5.225 124.998236
5.23 125.049786
5.235 125.101304
5.24 125.152791
5.245 125.204248
5.25 125.255674
5.255 125.307068
5.26 125.358432
5.265 125.409766
5.27 125.461068
5.275 125.51234
5.28 125.563582
5.285 125.614792
5.29 125.665973
5.295 125.717122
5.3 125.768242
5.305 125.81933
5.31 125.870389
5.315 125.921417
5.32 125.972415
5.325 126.023382
5.33 126.074319
5.335 126.125226
5.34 126.176103
5.345 126.226949
5.35 126.277766
5.355 126.328552
5.36 126.379309
5.365 126.430035
5.37 126.480732
5.375 126.531398
5.38 126.582035
5.385 126.632641
5.39 126.683218
5.395 126.733766
5.4 126.784283
5.405 126.834771
5.41 126.885229
5.415 126.935657
5.42 126.986056
5.425 127.036425
5.43 127.086765
5.435 127.137075
5.44 127.187356
5.445 127.237607
5.45 127.287829
5.455 127.338021
5.46 127.388184
5.465 127.438318
5.47 127.488423
5.475 127.538498
5.48 127.588545
5.485 127.638562
5.49 127.68855
5.495 127.738509
5.5 127.788438
5.505 127.838339
5.51 127.888211
5.515 127.938054
5.52 127.987868
5.525 128.037653
5.53 128.087409
5.535 128.137137
5.54 128.186835
5.545 128.236505
5.55 128.286146
5.555 128.335759
5.56 128.385343
5.565 128.434898
5.57 128.484425
5.575 128.533923
5.58 128.583392
5.585 128.632833
5.59 128.682246
5.595 128.73163
5.6 128.780986
5.605 128.830314
5.61 128.879613
5.615 128.928884
5.62 128.978126
5.625 129.027341
5.63 129.076527
5.635 129.125685
5.64 129.174815
5.645 129.223917
5.65 129.272991
5.655 129.322037
5.66 129.371054
5.665 129.420044
5.67 129.469006
5.675 129.51794
5.68 129.566846
5.685 129.615724
5.69 129.664575
5.695 129.713398
5.7 129.762192
5.705 129.81096
5.71 129.859699
5.715 129.908411
5.72 129.957095
5.725 130.005752
5.73 130.054381
5.735 130.102983
5.74 130.151557
5.745 130.200104
5.75 130.248623
5.755 130.297115
5.76 130.345579
5.765 130.394016
5.77 130.442426
5.775 130.490808
5.78 130.539164
5.785 130.587492
5.79 130.635793
5.795 130.684066
5.8 130.732313
5.805 130.780532
5.81 130.828725
5.815 130.87689
5.82 130.925028
5.825 130.97314
5.83 131.021224
5.835 131.069281
5.84 131.117312
5.845 131.165316
5.85 131.213293
5.855 131.261243
5.86 131.309166
5.865 131.357063
5.87 131.404932
5.875 131.452776
5.88 131.500592
5.885 131.548382
5.89 131.596145
5.895 131.643882
5.9 131.691592
5.905 131.739276
5.91 131.786933
5.915 131.834563
5.92 131.882168
5.925 131.929746
5.93 131.977297
5.935 132.024822
5.94 132.072321
5.945 132.119794
5.95 132.16724
5.955 132.21466
5.96 132.262054
5.965 132.309422
5.97 132.356763
5.975 132.404079
5.98 132.451368
5.985 132.498632
5.99 132.545869
5.995 132.59308
6.0 132.640265
6.005 132.687425
6.01 132.734558
6.015 132.781666
6.02 132.828747
6.025 132.875803
6.03 132.922833
6.035 132.969838
6.04 133.016816
6.045 133.063769
6.05 133.110696
6.055 133.157597
6.06 133.204473
6.065 133.251323
6.07 133.298148
6.075 133.344947
6.08 133.39172
6.085 133.438468
6.09 133.48519
6.095 133.531887
6.1 133.578559
6.105 133.625205
6.11 133.671826
6.115 133.718421
6.12 133.764991
6.125 133.811536
6.13 133.858056
6.135 133.90455
6.14 133.951019
6.145 133.997463
6.15 134.043881
6.155 134.090275
6.16 134.136643
6.165 134.182987
6.17 134.229305
6.175 134.275598
6.18 134.321866
6.185 134.36811
6.19 134.414328
6.195 134.460521
6.2 134.50669
6.205 134.552833
6.21 134.598952
6.215 134.645046
6.22 134.691115
6.225 134.737159
6.23 134.783179
6.235 134.829174
6.24 134.875144
6.245 134.921089
6.25 134.96701
6.255 135.012906
6.26 135.058778
6.265 135.104624
6.27 135.150447
6.275 135.196245
6.28 135.242018
6.285 135.287767
6.29 135.333491
6.295 135.379191
6.3 135.424867
6.305 135.470518
6.31 135.516145
6.315 135.561748
6.32 135.607326
6.325 135.65288
6.33 135.698409
6.335 135.743915
6.34 135.789396
6.345 135.834853
6.35 135.880286
6.355 135.925695
6.36 135.97108
6.365 136.01644
6.37 136.061777
6.375 136.107089
6.38 136.152377
6.385 136.197642
6.39 136.242882
6.395 136.288099
6.4 136.333292
6.405 136.37846
6.41 136.423605
6.415 136.468726
6.42 136.513823
6.425 136.558897
6.43 136.603946
6.435 136.648972
6.44 136.693974
6.445 136.738953
6.45 136.783907
6.455 136.828839
6.46 136.873746
6.465 136.91863
6.47 136.96349
6.475 137.008327
6.48 137.05314
6.485 137.097929
6.49 137.142696
6.495 137.187438
6.5 137.232157
6.505 137.276853
6.51 137.321525
6.515 137.366174
6.52 137.4108
6.525 137.455402
6.53 137.499981
6.535 137.544537
6.54 137.589069
6.545 137.633578
6.55 137.678064
6.555 137.722527
6.56 137.766966
6.565 137.811383
6.57 137.855776
6.575 137.900146
6.58 137.944493
6.585 137.988817
6.59 138.033118
6.595 138.077396
6.6 138.121651
6.605 138.165883
6.61 138.210092
6.615 138.254278
6.62 138.298441
6.625 138.342581
6.63 138.386698
6.635 138.430793
6.64 138.474864
6.645 138.518913
6.65 138.562939
6.655 138.606943
6.66 138.650923
6.665 138.694881
6.67 138.738816
6.675 138.782729
6.68 138.826619
6.685 138.870486
6.69 138.91433
6.695 138.958152
6.7 139.001952
6.705 139.045729
6.71 139.089483
6.715 139.133215
6.72 139.176924
6.725 139.220611
6.73 139.264276
6.735 139.307918
6.74 139.351537
6.745 139.395135
6.75 139.43871
6.755 139.482262
6.76 139.525793
6.765 139.569301
6.77 139.612786
6.775 139.65625
6.78 139.699691
6.785 139.74311
6.79 139.786507
6.795 139.829882
6.8 139.873234
6.805 139.916564
6.81 139.959873
6.815 140.003159
6.82 140.046423
6.825 140.089665
6.83 140.132885
6.835 140.176083
6.84 140.219259
6.845 140.262414
6.85 140.305546
6.855 140.348656
6.86 140.391744
6.865 140.434811
6.87 140.477855
6.875 140.520878
6.88 140.563879
6.885 140.606858
6.89 140.649816
6.895 140.692751
6.9 140.735665
6.905 140.778557
6.91 140.821428
6.915 140.864276
6.92 140.907103
6.925 140.949909
6.93 140.992693
6.935 141.035455
6.94 141.078195
6.945 141.120914
6.95 141.163612
6.955 141.206288
6.96 141.248942
6.965 141.291575
6.97 141.334187
6.975 141.376777
6.98 141.419346
6.985 141.461893
6.99 141.504419
6.995 141.546923
7.0 141.589406
7.005 141.631868
7.01 141.674309
7.015 141.716728
7.02 141.759126
7.025 141.801502
7.03 141.843858
7.035 141.886192
7.04 141.928505
7.045 141.970797
7.05 142.013068
7.055 142.055317
7.06 142.097545
7.065 142.139753
7.07 142.181939
7.075 142.224104
7.08 142.266248
7.085 142.308371
7.09 142.350473
7.095 142.392554
7.1 142.434614
7.105 142.476654
7.11 142.518672
7.115 142.560669
7.12 142.602645
7.125 142.644601
7.13 142.686536
7.135 142.728449
7.14 142.770342
7.145 142.812215
7.15 142.854066
7.155 142.895897
7.16 142.937706
7.165 142.979495
7.17 143.021264
7.175 143.063012
7.18 143.104739
7.185 143.146445
7.19 143.188131
7.195 143.229796
7.2 143.27144
7.205 143.313064
7.21 143.354667
7.215 143.39625
7.22 143.437813
7.225 143.479354
7.23 143.520875
7.235 143.562376
7.24 143.603856
7.245 143.645316
7.25 143.686756
7.255 143.728175
7.26 143.769573
7.265 143.810951
7.27 143.852309
7.275 143.893647
7.28 143.934964
7.285 143.976261
7.29 144.017537
7.295 144.058794
7.3 144.10003
7.305 144.141246
7.31 144.182441
7.315 144.223617
7.32 144.264772
7.325 144.305907
7.33 144.347022
7.335 144.388117
7.34 144.429191
7.345 144.470246
7.35 144.51128
7.355 144.552295
7.36 144.593289
7.365 144.634263
7.37 144.675218
7.375 144.716152
7.38 144.757066
7.385 144.797961
7.39 144.838835
7.395 144.87969
7.4 144.920524
7.405 144.961339
7.41 145.002134
7.415 145.042909
7.42 145.083664
7.425 145.124399
7.43 145.165115
7.435 145.205811
7.44 145.246486
7.445 145.287143
7.45 145.327779
7.455 145.368396
7.46 145.408993
7.465 145.44957
7.47 145.490128
7.475 145.530665
7.48 145.571184
7.485 145.611682
7.49 145.652161
7.495 145.692621
7.5 145.733061
7.505 145.773481
7.51 145.813882
7.515 145.854263
7.52 145.894625
7.525 145.934967
7.53 145.97529
7.535 146.015593
7.54 146.055877
7.545 146.096141
7.55 146.136386
7.555 146.176612
7.56 146.216818
7.565 146.257005
7.57 146.297172
7.575 146.33732
7.58 146.377449
7.585 146.417558
7.59 146.457649
7.595 146.49772
7.6 146.537771
7.605 146.577804
7.61 146.617817
7.615 146.657811
7.62 146.697786
7.625 146.737741
7.63 146.777678
7.635 146.817595
7.64 146.857493
7.645 146.897372
7.65 146.937232
7.655 146.977073
7.66 147.016895
7.665 147.056697
7.67 147.096481
7.675 147.136246
7.68 147.175991
7.685 147.215718
7.69 147.255426
7.695 147.295114
7.7 147.334784
7.705 147.374435
7.71 147.414067
7.715 147.45368
7.72 147.493274
7.725 147.532849
7.73 147.572406
7.735 147.611943
7.74 147.651462
7.745 147.690962
7.75 147.730443
7.755 147.769905
7.76 147.809349
7.765 147.848774
7.77 147.88818
7.775 147.927567
7.78 147.966936
7.785 148.006286
7.79 148.045617
7.795 148.08493
7.8 148.124224
7.805 148.163499
7.81 148.202756
7.815 148.241994
7.82 148.281213
7.825 148.320414
7.83 148.359597
7.835 148.398761
7.84 148.437906
7.845 148.477033
7.85 148.516141
7.855 148.555231
7.86 148.594302
7.865 148.633355
7.87 148.67239
7.875 148.711406
7.88 148.750403
7.885 148.789383
7.89 148.828343
7.895 148.867286
7.9 148.90621
7.905 148.945116
7.91 148.984003
7.915 149.022873
7.92 149.061723
7.925 149.100556
7.93 149.13937
7.935 149.178166
7.94 149.216944
7.945 149.255704
7.95 149.294445
7.955 149.333168
7.96 149.371873
7.965 149.41056
7.97 149.449229
7.975 149.487879
7.98 149.526512
7.985 149.565126
7.99 149.603722
7.995 149.6423
8.0 149.68086
8.005 149.719402
8.01 149.757926
8.015 149.796432
8.02 149.83492
8.025 149.87339
8.03 149.911842
8.035 149.950276
8.04 149.988692
8.045 150.02709
8.05 150.06547
8.055 150.103832
8.06 150.142177
8.065 150.180503
8.07 150.218812
8.075 150.257102
8.08 150.295375
8.085 150.33363
8.09 150.371867
8.095 150.410087
8.1 150.448288
8.105 150.486472
8.11 150.524638
8.115 150.562786
8.12 150.600917
8.125 150.639029
8.13 150.677124
8.135 150.715202
8.14 150.753262
8.145 150.791304
8.15 150.829328
8.155 150.867335
8.16 150.905324
8.165 150.943295
8.17 150.981249
8.175 151.019185
8.18 151.057104
8.185 151.095005
8.19 151.132888
8.195 151.170754
8.2 151.208603
8.205 151.246434
8.21 151.284247
8.215 151.322043
8.22 151.359822
8.225 151.397583
8.23 151.435326
8.235 151.473053
8.24 151.510761
8.245 151.548453
8.25 151.586127
8.255 151.623783
8.26 151.661422
8.265 151.699044
8.27 151.736648
8.275 151.774236
8.28 151.811805
8.285 151.849358
8.29 151.886893
8.295 151.924411
8.3 151.961912
8.305 151.999395
8.31 152.036861
8.315 152.07431
8.32 152.111742
8.325 152.149156
8.33 152.186554
8.335 152.223934
8.34 152.261297
8.345 152.298643
8.35 152.335971
8.355 152.373283
8.36 152.410577
8.365 152.447855
8.37 152.485115
8.375 152.522358
8.38 152.559584
8.385 152.596793
8.39 152.633985
8.395 152.67116
8.4 152.708318
8.405 152.745459
8.41 152.782583
8.415 152.81969
8.42 152.85678
8.425 152.893853
8.43 152.930909
8.435 152.967948
8.44 153.004971
8.445 153.041976
8.45 153.078964
8.455 153.115936
8.46 153.152891
8.465 153.189829
8.47 153.22675
8.475 153.263654
8.48 153.300541
8.485 153.337412
8.49 153.374266
8.495 153.411103
8.5 153.447923
8.505 153.484726
8.51 153.521513
8.515 153.558283
8.52 153.595036
8.525 153.631773
8.53 153.668493
8.535 153.705196
8.54 153.741882
8.545 153.778552
8.55 153.815205
8.555 153.851842
8.56 153.888462
8.565 153.925065
8.57 153.961652
8.575 153.998222
8.58 154.034775
8.585 154.071312
8.59 154.107833
8.595 154.144336
8.6 154.180824
8.605 154.217295
8.61 154.253749
8.615 154.290187
8.62 154.326608
8.625 154.363013
8.63 154.399401
8.635 154.435773
8.64 154.472128
8.645 154.508467
8.65 154.54479
8.655 154.581096
8.66 154.617386
8.665 154.65366
8.67 154.689917
8.675 154.726157
8.68 154.762382
8.685 154.79859
8.69 154.834782
8.695 154.870957
8.7 154.907116
8.705 154.943259
8.71 154.979385
8.715 155.015496
8.72 155.05159
8.725 155.087667
8.73 155.123729
8.735 155.159774
8.74 155.195803
8.745 155.231816
8.75 155.267813
8.755 155.303794
8.76 155.339758
8.765 155.375706
8.77 155.411638
8.775 155.447554
8.78 155.483454
8.785 155.519338
8.79 155.555205
8.795 155.591057
8.8 155.626892
8.805 155.662712
8.81 155.698515
8.815 155.734302
8.82 155.770074
8.825 155.805829
8.83 155.841568
8.835 155.877291
8.84 155.912999
8.845 155.94869
8.85 155.984365
8.855 156.020024
8.86 156.055668
8.865 156.091295
8.87 156.126907
8.875 156.162503
8.88 156.198082
8.885 156.233646
8.89 156.269194
8.895 156.304726
8.9 156.340242
8.905 156.375743
8.91 156.411227
8.915 156.446696
8.92 156.482149
8.925 156.517586
8.93 156.553008
8.935 156.588413
8.94 156.623803
8.945 156.659177
8.95 156.694535
8.955 156.729878
8.96 156.765205
8.965 156.800516
8.97 156.835811
8.975 156.871091
8.98 156.906355
8.985 156.941603
8.99 156.976836
8.995 157.012053
9.0 157.047254
9.005 157.08244
9.01 157.11761
9.015 157.152764
9.02 157.187903
9.025 157.223027
9.03 157.258134
9.035 157.293226
9.04 157.328303
9.045 157.363364
9.05 157.39841
9.055 157.43344
9.06 157.468454
9.065 157.503453
9.07 157.538436
9.075 157.573404
9.08 157.608357
9.085 157.643294
9.09 157.678216
9.095 157.713122
9.1 157.748012
9.105 157.782888
9.11 157.817747
9.115 157.852592
9.12 157.887421
9.125 157.922235
9.13 157.957033
9.135 157.991816
9.14 158.026583
9.145 158.061336
9.15 158.096073
9.155 158.130794
9.16 158.1655
9.165 158.200191
9.17 158.234867
9.175 158.269527
9.18 158.304172
9.185 158.338802
9.19 158.373417
9.195 158.408016
9.2 158.4426
9.205 158.477169
9.21 158.511723
9.215 158.546261
9.22 158.580785
9.225 158.615293
9.23 158.649786
9.235 158.684263
9.24 158.718726
9.245 158.753173
9.25 158.787606
9.255 158.822023
9.26 158.856425
9.265 158.890812
9.27 158.925184
9.275 158.959541
9.28 158.993882
9.285 159.028209
9.29 159.062521
9.295 159.096817
9.3 159.131099
9.305 159.165365
9.31 159.199617
9.315 159.233853
9.32 159.268075
9.325 159.302281
9.33 159.336473
9.335 159.370649
9.34 159.404811
9.345 159.438957
9.35 159.473089
9.355 159.507206
9.36 159.541308
9.365 159.575395
9.37 159.609467
9.375 159.643524
9.38 159.677566
9.385 159.711593
9.39 159.745606
9.395 159.779604
9.4 159.813586
9.405 159.847554
9.41 159.881508
9.415 159.915446
9.42 159.949369
9.425 159.983278
9.43 160.017172
9.435 160.051051
9.44 160.084916
9.445 160.118765
9.45 160.1526
9.455 160.18642
9.46 160.220226
9.465 160.254016
9.47 160.287792
9.475 160.321554
9.48 160.3553
9.485 160.389032
9.49 160.422749
9.495 160.456452
9.5 160.49014
9.505 160.523813
9.51 160.557472
9.515 160.591116
9.52 160.624745
9.525 160.65836
9.53 160.69196
9.535 160.725546
9.54 160.759117
9.545 160.792673
9.55 160.826215
9.555 160.859742
9.56 160.893255
9.565 160.926753
9.57 160.960237
9.575 160.993706
9.58 161.02716
9.585 161.0606
9.59 161.094026
9.595 161.127437
9.6 161.160834
9.605 161.194216
9.61 161.227584
9.615 161.260937
9.62 161.294276
9.625 161.327601
9.63 161.360911
9.635 161.394206
9.64 161.427487
9.645 161.460754
9.65 161.494007
9.655 161.527245
9.66 161.560468
9.665 161.593678
9.67 161.626873
9.675 161.660053
9.68 161.693219
9.685 161.726371
9.69 161.759509
9.695 161.792632
9.7 161.825741
9.705 161.858836
9.71 161.891917
9.715 161.924983
9.72 161.958035
9.725 161.991073
9.73 162.024096
9.735 162.057105
9.74 162.0901
9.745 162.123081
9.75 162.156048
9.755 162.189
9.76 162.221938
9.765 162.254862
9.77 162.287772
9.775 162.320667
9.78 162.353549
9.785 162.386416
9.79 162.419269
9.795 162.452109
9.8 162.484933
9.805 162.517744
9.81 162.550541
9.815 162.583324
9.82 162.616092
9.825 162.648847
9.83 162.681587
9.835 162.714313
9.84 162.747025
9.845 162.779724
9.85 162.812408
9.855 162.845078
9.86 162.877734
9.865 162.910376
9.87 162.943004
9.875 162.975618
9.88 163.008218
9.885 163.040805
9.89 163.073377
9.895 163.105935
9.9 163.138479
9.905 163.17101
9.91 163.203526
9.915 163.236028
9.92 163.268517
9.925 163.300991
9.93 163.333452
9.935 163.365899
9.94 163.398332
9.945 163.430751
9.95 163.463156
9.955 163.495547
9.96 163.527925
9.965 163.560288
9.97 163.592638
9.975 163.624974
9.98 163.657296
9.985 163.689604
9.99 163.721899
9.995 163.754179
10.0 163.786446
10.005 163.818699
10.01 163.850939
10.015 163.883164
10.02 163.915376
10.025 163.947574
10.03 163.979759
10.035 164.011929
10.04 164.044086
10.045 164.076229
10.05 164.108359
10.055 164.140474
10.06 164.172576
10.065 164.204665
10.07 164.236739
10.075 164.2688
10.08 164.300848
10.085 164.332881
10.09 164.364902
10.095 164.396908
10.1 164.428901
10.105 164.46088
10.11 164.492845
10.115 164.524797
10.12 164.556736
10.125 164.588661
10.13 164.620572
10.135 164.652469
10.14 164.684353
10.145 164.716224
10.15 164.748081
10.155 164.779924
10.16 164.811754
10.165 164.84357
10.17 164.875373
10.175 164.907163
10.18 164.938938
10.185 164.970701
10.19 165.00245
10.195 165.034185
10.2 165.065907
10.205 165.097615
10.21 165.12931
10.215 165.160992
10.22 165.19266
10.225 165.224314
10.23 165.255956
10.235 165.287583
10.24 165.319198
10.245 165.350799
10.25 165.382386
10.255 165.413961
10.26 165.445521
10.265 165.477069
10.27 165.508603
10.275 165.540124
10.28 165.571631
10.285 165.603125
10.29 165.634606
10.295 165.666073
10.3 165.697527
10.305 165.728968
10.31 165.760396
10.315 165.79181
10.32 165.823211
10.325 165.854598
10.33 165.885973
10.335 165.917334
10.34 165.948682
10.345 165.980016
10.35 166.011337
10.355 166.042645
10.36 166.07394
10.365 166.105222
10.37 166.13649
10.375 166.167746
10.38 166.198988
10.385 166.230216
10.39 166.261432
10.395 166.292635
10.4 166.323824
10.405 166.355
10.41 166.386163
10.415 166.417313
10.42 166.44845
10.425 166.479573
10.43 166.510684
10.435 166.541781
10.44 166.572865
10.445 166.603936
10.45 166.634994
10.455 166.666039
10.46 166.697071
10.465 166.72809
10.47 166.759096
10.475 166.790088
10.48 166.821068
10.485 166.852035
10.49 166.882988
10.495 166.913929
10.5 166.944856
10.505 166.975771
10.51 167.006672
10.515 167.037561
10.52 167.068436
10.525 167.099299
10.53 167.130148
10.535 167.160985
10.54 167.191808
10.545 167.222619
10.55 167.253417
10.555 167.284201
10.56 167.314973
10.565 167.345732
10.57 167.376478
10.575 167.407211
10.58 167.437931
10.585 167.468638
10.59 167.499333
10.595 167.530014
10.6 167.560683
10.605 167.591338
10.61 167.621981
10.615 167.652611
10.62 167.683228
10.625 167.713833
10.63 167.744424
10.635 167.775003
10.64 167.805569
10.645 167.836122
10.65 167.866662
10.655 167.897189
10.66 167.927704
10.665 167.958206
10.67 167.988695
10.675 168.019171
10.68 168.049634
10.685 168.080085
10.69 168.110523
10.695 168.140948
10.7 168.171361
10.705 168.201761
10.71 168.232148
10.715 168.262522
10.72 168.292884
10.725 168.323232
10.73 168.353569
10.735 168.383892
10.74 168.414203
10.745 168.444501
10.75 168.474787
10.755 168.50506
10.76 168.53532
10.765 168.565567
10.77 168.595802
10.775 168.626024
10.78 168.656234
10.785 168.686431
10.79 168.716615
10.795 168.746787
10.8 168.776946
10.805 168.807093
10.81 168.837227
10.815 168.867348
10.82 168.897457
10.825 168.927553
10.83 168.957637
10.835 168.987708
10.84 169.017767
10.845 169.047813
10.85 169.077846
10.855 169.107867
10.86 169.137876
10.865 169.167872
10.87 169.197855
10.875 169.227826
10.88 169.257785
10.885 169.287731
10.89 169.317664
10.895 169.347585
10.9 169.377494
10.905 169.40739
10.91 169.437274
10.915 169.467145
10.92 169.497003
10.925 169.52685
10.93 169.556684
10.935 169.586505
10.94 169.616314
10.945 169.646111
10.95 169.675895
10.955 169.705667
10.96 169.735426
10.965 169.765173
10.97 169.794908
10.975 169.82463
10.98 169.85434
10.985 169.884038
10.99 169.913723
10.995 169.943396
11.0 169.973057
11.005 170.002705
11.01 170.032341
11.015 170.061964
11.02 170.091576
11.025 170.121175
11.03 170.150761
11.035 170.180336
11.04 170.209898
11.045 170.239448
11.05 170.268985
11.055 170.298511
11.06 170.328024
11.065 170.357524
11.07 170.387013
11.075 170.416489
11.08 170.445953
11.085 170.475405
11.09 170.504845
11.095 170.534272
11.1 170.563687
11.105 170.59309
11.11 170.622481
11.115 170.65186
11.12 170.681226
11.125 170.71058
11.13 170.739922
11.135 170.769252
11.14 170.79857
11.145 170.827875
11.15 170.857169
11.155 170.88645
11.16 170.915719
11.165 170.944976
11.17 170.974221
11.175 171.003454
11.18 171.032675
11.185 171.061883
11.19 171.09108
11.195 171.120264
11.2 171.149436
11.205 171.178597
11.21 171.207745
11.215 171.236881
11.22 171.266005
11.225 171.295117
11.23 171.324217
11.235 171.353305
11.24 171.382381
11.245 171.411444
11.25 171.440496
11.255 171.469536
11.26 171.498564
11.265 171.52758
11.27 171.556583
11.275 171.585575
11.28 171.614555
11.285 171.643523
11.29 171.672479
11.295 171.701422
11.3 171.730354
11.305 171.759274
11.31 171.788182
11.315 171.817078
11.32 171.845962
11.325 171.874835
11.33 171.903695
11.335 171.932543
11.34 171.96138
11.345 171.990204
11.35 172.019017
11.355 172.047818
11.36 172.076606
11.365 172.105383
11.37 172.134148
11.375 172.162902
11.38 172.191643
11.385 172.220372
11.39 172.24909
11.395 172.277796
11.4 172.30649
11.405 172.335172
11.41 172.363842
11.415 172.392501
11.42 172.421147
11.425 172.449782
11.43 172.478405
11.435 172.507016
11.44 172.535616
11.445 172.564203
11.45 172.592779
11.455 172.621343
11.46 172.649895
11.465 172.678436
11.47 172.706965
11.475 172.735482
11.48 172.763987
11.485 172.79248
11.49 172.820962
11.495 172.849432
11.5 172.87789
11.505 172.906337
11.51 172.934772
11.515 172.963195
11.52 172.991607
11.525 173.020006
11.53 173.048394
11.535 173.076771
11.54 173.105136
11.545 173.133489
11.55 173.16183
11.555 173.19016
11.56 173.218478
11.565 173.246784
11.57 173.275079
11.575 173.303362
11.58 173.331634
11.585 173.359893
11.59 173.388142
11.595 173.416378
11.6 173.444603
11.605 173.472817
11.61 173.501018
11.615 173.529209
11.62 173.557387
11.625 173.585554
11.63 173.61371
11.635 173.641854
11.64 173.669986
11.645 173.698107
11.65 173.726216
11.655 173.754314
11.66 173.7824
11.665 173.810474
11.67 173.838538
11.675 173.866589
11.68 173.894629
11.685 173.922658
11.69 173.950675
11.695 173.97868
11.7 174.006674
11.705 174.034657
11.71 174.062628
11.715 174.090587
11.72 174.118535
11.725 174.146472
11.73 174.174397
11.735 174.20231
11.74 174.230213
11.745 174.258103
11.75 174.285983
11.755 174.313851
11.76 174.341707
11.765 174.369552
11.77 174.397386
11.775 174.425208
11.78 174.453018
11.785 174.480818
11.79 174.508606
11.795 174.536382
11.8 174.564148
11.805 174.591901
11.81 174.619644
11.815 174.647375
11.82 174.675094
11.825 174.702803
11.83 174.7305
11.835 174.758185
11.84 174.78586
11.845 174.813522
11.85 174.841174
11.855 174.868814
11.86 174.896443
11.865 174.924061
11.87 174.951667
11.875 174.979262
11.88 175.006846
11.885 175.034418
11.89 175.061979
11.895 175.089529
11.9 175.117068
11.905 175.144595
11.91 175.172111
11.915 175.199616
11.92 175.227109
11.925 175.254591
11.93 175.282062
11.935 175.309522
11.94 175.33697
11.945 175.364408
11.95 175.391834
11.955 175.419249
11.96 175.446652
11.965 175.474044
11.97 175.501426
11.975 175.528796
11.98 175.556154
11.985 175.583502
11.99 175.610838
11.995 175.638164
12.0 175.665478
12.005 175.69278
12.01 175.720072
12.015 175.747353
12.02 175.774622
12.025 175.80188
12.03 175.829127
12.035 175.856363
12.04 175.883588
12.045 175.910802
12.05 175.938004
12.055 175.965196
12.06 175.992376
12.065 176.019545
12.07 176.046703
12.075 176.07385
12.08 176.100986
12.085 176.128111
12.09 176.155225
12.095 176.182328
12.1 176.209419
12.105 176.2365
12.11 176.263569
12.115 176.290628
12.12 176.317675
12.125 176.344711
12.13 176.371737
12.135 176.398751
12.14 176.425754
12.145 176.452746
12.15 176.479727
12.155 176.506697
12.16 176.533657
12.165 176.560605
12.17 176.587542
12.175 176.614468
12.18 176.641383
12.185 176.668287
12.19 176.69518
12.195 176.722063
12.2 176.748934
12.205 176.775794
12.21 176.802643
12.215 176.829482
12.22 176.856309
12.225 176.883126
12.23 176.909931
12.235 176.936726
12.24 176.963509
12.245 176.990282
12.25 177.017044
12.255 177.043795
12.26 177.070534
12.265 177.097264
12.27 177.123982
12.275 177.150689
12.28 177.177385
12.285 177.204071
12.29 177.230745
12.295 177.257409
12.3 177.284062
12.305 177.310704
12.31 177.337335
12.315 177.363955
12.32 177.390565
12.325 177.417163
12.33 177.443751
12.335 177.470328
12.34 177.496894
12.345 177.523449
12.35 177.549993
12.355 177.576527
12.36 177.60305
12.365 177.629562
12.37 177.656063
12.375 177.682553
12.38 177.709033
12.385 177.735501
12.39 177.761959
12.395 177.788407
12.4 177.814843
12.405 177.841269
12.41 177.867684
12.415 177.894088
12.42 177.920481
12.425 177.946864
12.43 177.973236
12.435 177.999597
12.44 178.025947
12.445 178.052287
12.45 178.078616
12.455 178.104934
12.46 178.131241
12.465 178.157538
12.47 178.183824
12.475 178.2101
12.48 178.236364
12.485 178.262618
12.49 178.288861
12.495 178.315094
12.5 178.341316
12.505 178.367527
12.51 178.393728
12.515 178.419918
12.52 178.446097
12.525 178.472266
12.53 178.498424
12.535 178.524571
12.54 178.550707
12.545 178.576834
12.55 178.602949
12.555 178.629054
12.56 178.655148
12.565 178.681231
12.57 178.707304
12.575 178.733366
12.58 178.759418
12.585 178.785459
12.59 178.81149
12.595 178.83751
12.6 178.863519
12.605 178.889518
12.61 178.915506
12.615 178.941483
12.62 178.96745
12.625 178.993407
12.63 179.019353
12.635 179.045288
12.64 179.071213
12.645 179.097127
12.65 179.123031
12.655 179.148924
12.66 179.174807
12.665 179.200679
12.67 179.22654
12.675 179.252391
12.68 179.278232
12.685 179.304062
12.69 179.329881
12.695 179.35569
12.7 179.381489
12.705 179.407277
12.71 179.433055
12.715 179.458822
12.72 179.484578
12.725 179.510324
12.73 179.53606
12.735 179.561785
12.74 179.5875
12.745 179.613204
12.75 179.638898
12.755 179.664582
12.76 179.690255
12.765 179.715917
12.77 179.741569
12.775 179.767211
12.78 179.792842
12.785 179.818463
12.79 179.844073
12.795 179.869673
12.8 179.895263
12.805 179.920842
12.81 179.946411
12.815 179.971969
12.82 179.997517
12.825 180.023055
12.83 180.048582
12.835 180.074099
12.84 180.099606
12.845 180.125102
12.85 180.150587
12.855 180.176063
12.86 180.201528
12.865 180.226983
12.87 180.252427
12.875 180.277861
12.88 180.303285
12.885 180.328698
12.89 180.354101
12.895 180.379494
12.9 180.404876
12.905 180.430248
12.91 180.45561
12.915 180.480962
12.92 180.506303
12.925 180.531634
12.93 180.556954
12.935 180.582265
12.94 180.607565
12.945 180.632854
12.95 180.658134
12.955 180.683403
12.96 180.708662
12.965 180.733911
12.97 180.759149
12.975 180.784377
12.98 180.809595
12.985 180.834803
12.99 180.86
12.995 180.885188
13.0 180.910365
13.005 180.935531
13.01 180.960688
13.015 180.985834
13.02 181.01097
13.025 181.036096
13.03 181.061212
13.035 181.086317
13.04 181.111413
13.045 181.136498
13.05 181.161572
13.055 181.186637
13.06 181.211692
13.065 181.236736
13.07 181.26177
13.075 181.286794
13.08 181.311808
13.085 181.336812
13.09 181.361805
13.095 181.386789
13.1 181.411762
13.105 181.436725
13.11 181.461678
13.115 181.486621
13.12 181.511554
13.125 181.536476
13.13 181.561389
13.135 181.586291
13.14 181.611183
13.145 181.636065
13.15 181.660937
13.155 181.685799
13.16 181.710651
13.165 181.735493
13.17 181.760324
13.175 181.785146
13.18 181.809957
13.185 181.834759
13.19 181.85955
13.195 181.884331
13.2 181.909103
13.205 181.933864
13.21 181.958615
13.215 181.983356
13.22 182.008087
13.225 182.032808
13.23 182.057519
13.235 182.082219
13.24 182.10691
13.245 182.131591
13.25 182.156262
13.255 182.180923
13.26 182.205573
13.265 182.230214
13.27 182.254845
13.275 182.279466
13.28 182.304076
13.285 182.328677
13.29 182.353268
13.295 182.377849
13.3 182.402419
13.305 182.42698
13.31 182.451531
13.315 182.476072
13.32 182.500603
13.325 182.525124
13.33 182.549635
13.335 182.574136
13.34 182.598627
13.345 182.623108
13.35 182.647579
13.355 182.67204
13.36 182.696492
13.365 182.720933
13.37 182.745364
13.375 182.769786
13.38 182.794198
13.385 182.818599
13.39 182.842991
13.395 182.867373
13.4 182.891745
13.405 182.916107
13.41 182.940459
13.415 182.964802
13.42 182.989134
13.425 183.013457
13.43 183.037769
13.435 183.062072
13.44 183.086365
13.445 183.110648
13.45 183.134921
13.455 183.159184
13.46 183.183438
13.465 183.207682
13.47 183.231915
13.475 183.256139
13.48 183.280353
13.485 183.304558
13.49 183.328752
13.495 183.352937
13.5 183.377111
13.505 183.401276
13.51 183.425432
13.515 183.449577
13.52 183.473712
13.525 183.497838
13.53 183.521954
13.535 183.54606
13.54 183.570156
13.545 183.594243
13.55 183.61832
13.555 183.642387
13.56 183.666444
13.565 183.690491
13.57 183.714529
13.575 183.738557
13.58 183.762575
13.585 183.786583
13.59 183.810582
13.595 183.834571
13.6 183.85855
13.605 183.882519
13.61 183.906479
13.615 183.930429
13.62 183.954369
13.625 183.9783
13.63 184.00222
13.635 184.026131
13.64 184.050033
13.645 184.073924
13.65 184.097806
13.655 184.121678
13.66 184.145541
13.665 184.169393
13.67 184.193236
13.675 184.21707
13.68 184.240893
13.685 184.264707
13.69 184.288512
13.695 184.312306
13.7 184.336091
13.705 184.359867
13.71 184.383632
13.715 184.407388
13.72 184.431135
13.725 184.454871
13.73 184.478598
13.735 184.502316
13.74 184.526024
13.745 184.549722
13.75 184.57341
13.755 184.597089
13.76 184.620758
13.765 184.644418
13.77 184.668068
13.775 184.691708
13.78 184.715339
13.785 184.73896
13.79 184.762572
13.795 184.786174
13.8 184.809766
13.805 184.833349
13.81 184.856922
13.815 184.880485
13.82 184.904039
13.825 184.927584
13.83 184.951119
13.835 184.974644
13.84 184.99816
13.845 185.021666
13.85 185.045162
13.855 185.068649
13.86 185.092127
13.865 185.115595
13.87 185.139053
13.875 185.162502
13.88 185.185941
13.885 185.209371
13.89 185.232791
13.895 185.256202
13.9 185.279603
13.905 185.302995
13.91 185.326377
13.915 185.34975
13.92 185.373113
13.925 185.396466
13.93 185.419811
13.935 185.443145
13.94 185.46647
13.945 185.489786
13.95 185.513092
13.955 185.536389
13.96 185.559676
13.965 185.582954
13.97 185.606222
13.975 185.629481
13.98 185.65273
13.985 185.67597
13.99 185.6992
13.995 185.722421
14.0 185.745633
14.005 185.768835
14.01 185.792027
14.015 185.81521
14.02 185.838384
14.025 185.861548
14.03 185.884703
14.035 185.907848
14.04 185.930984
14.045 185.954111
14.05 185.977228
14.055 186.000336
14.06 186.023434
14.065 186.046523
14.07 186.069602
14.075 186.092673
14.08 186.115733
14.085 186.138785
14.09 186.161827
14.095 186.184859
14.1 186.207882
14.105 186.230896
14.11 186.2539
14.115 186.276895
14.12 186.299881
14.125 186.322857
14.13 186.345824
14.135 186.368782
14.14 186.39173
14.145 186.414669
14.15 186.437599
14.155 186.460519
14.16 186.48343
14.165 186.506331
14.17 186.529223
14.175 186.552106
14.18 186.57498
14.185 186.597844
14.19 186.620699
14.195 186.643544
14.2 186.66638
14.205 186.689207
14.21 186.712025
14.215 186.734833
14.22 186.757632
14.225 186.780422
14.23 186.803203
14.235 186.825974
14.24 186.848736
14.245 186.871488
14.25 186.894231
14.255 186.916965
14.26 186.93969
14.265 186.962406
14.27 186.985112
14.275 187.007809
14.28 187.030497
14.285 187.053175
14.29 187.075844
14.295 187.098504
14.3 187.121155
14.305 187.143796
14.31 187.166429
14.315 187.189052
14.32 187.211665
14.325 187.23427
14.33 187.256865
14.335 187.279451
14.34 187.302028
14.345 187.324596
14.35 187.347154
14.355 187.369703
14.36 187.392243
14.365 187.414774
14.37 187.437296
14.375 187.459808
14.38 187.482311
14.385 187.504805
14.39 187.52729
14.395 187.549766
14.4 187.572232
14.405 187.59469
14.41 187.617138
14.415 187.639577
14.42 187.662007
14.425 187.684427
14.43 187.706839
14.435 187.729241
14.44 187.751634
14.445 187.774018
14.45 187.796393
14.455 187.818759
14.46 187.841116
14.465 187.863463
14.47 187.885802
14.475 187.908131
14.48 187.930451
14.485 187.952762
14.49 187.975064
14.495 187.997356
14.5 188.01964
14.505 188.041914
14.51 188.06418
14.515 188.086436
14.52 188.108683
14.525 188.130921
14.53 188.15315
14.535 188.17537
14.54 188.197581
14.545 188.219783
14.55 188.241976
14.555 188.264159
14.56 188.286334
14.565 188.308499
14.57 188.330655
14.575 188.352803
14.58 188.374941
14.585 188.39707
14.59 188.41919
14.595 188.441301
14.6 188.463403
14.605 188.485496
14.61 188.50758
14.615 188.529655
14.62 188.551721
14.625 188.573778
14.63 188.595826
14.635 188.617864
14.64 188.639894
14.645 188.661915
14.65 188.683927
14.655 188.705929
14.66 188.727923
14.665 188.749908
14.67 188.771883
14.675 188.79385
14.68 188.815808
14.685 188.837756
14.69 188.859696
14.695 188.881627
14.7 188.903548
14.705 188.925461
14.71 188.947365
14.715 188.96926
14.72 188.991145
14.725 189.013022
14.73 189.03489
14.735 189.056749
14.74 189.078599
14.745 189.10044
14.75 189.122272
14.755 189.144095
14.76 189.165909
14.765 189.187714
14.77 189.209511
14.775 189.231298
14.78 189.253076
14.785 189.274846
14.79 189.296606
14.795 189.318358
14.8 189.3401
14.805 189.361834
14.81 189.383559
14.815 189.405275
14.82 189.426982
14.825 189.44868
14.83 189.470369
14.835 189.492049
14.84 189.513721
14.845 189.535383
14.85 189.557037
14.855 189.578681
14.86 189.600317
14.865 189.621944
14.87 189.643562
14.875 189.665171
14.88 189.686772
14.885 189.708363
14.89 189.729945
14.895 189.751519
14.9 189.773084
14.905 189.79464
14.91 189.816187
14.915 189.837725
14.92 189.859255
14.925 189.880775
14.93 189.902287
14.935 189.92379
14.94 189.945284
14.945 189.966769
14.95 189.988245
14.955 190.009713
14.96 190.031172
14.965 190.052621
14.97 190.074062
14.975 190.095495
14.98 190.116918
14.985 190.138333
14.99 190.159738
14.995 190.181135
